#SUBSTANCE=Askja ash
#DESCRIPTION=Ash from Askja volcanic eruption, 1875 layer C
#REFERENCE=Reed, B.E., D.M. Peters, R. McPheat and R.G. Grainger, The complex refractive index of volcanic ash aerosol retrieved from spectral mass extinction, Journal of Geophysical Research: Atmospheres, 123, 1339-1350, 2018.
#DOI=10.1002/2017JD027362
#FORMAT=WAVN N K
       528.00000       1.8896379      0.71843118
       529.00000       1.8665286      0.71452751
       530.00000       1.8441795      0.70862661
       531.00000       1.8228401      0.70088022
       532.00000       1.8027222      0.69147804
       533.00000       1.7839941      0.68063691
       534.00000       1.7667778      0.66858953
       535.00000       1.7511501      0.65557358
       536.00000       1.7371450      0.64182233
       537.00000       1.7247591      0.62755701
       538.00000       1.7139573      0.61298114
       539.00000       1.7046789      0.59827692
       540.00000       1.6968445      0.58360323
       541.00000       1.6903611      0.56909514
       542.00000       1.6851273      0.55486444
       543.00000       1.6810381      0.54100105
       544.00000       1.6779878      0.52757489
       545.00000       1.6758730      0.51463801
       546.00000       1.6745949      0.50222692
       547.00000       1.6740603      0.49036484
       548.00000       1.6741830      0.47906393
       549.00000       1.6748841      0.46832728
       550.00000       1.6760924      0.45815078
       551.00000       1.6777442      0.44852479
       552.00000       1.6797835      0.43943557
       553.00000       1.6821610      0.43086660
       554.00000       1.6848343      0.42279961
       555.00000       1.6877671      0.41521553
       556.00000       1.6909285      0.40809529
       557.00000       1.6942927      0.40142041
       558.00000       1.6978383      0.39517355
       559.00000       1.7015475      0.38933887
       560.00000       1.7054060      0.38390241
       561.00000       1.7094018      0.37885222
       562.00000       1.7135253      0.37417859
       563.00000       1.7177682      0.36987406
       564.00000       1.7221236      0.36593352
       565.00000       1.7265852      0.36235409
       566.00000       1.7311469      0.35913515
       567.00000       1.7358024      0.35627821
       568.00000       1.7405452      0.35378679
       569.00000       1.7453679      0.35166629
       570.00000       1.7502621      0.34992387
       571.00000       1.7552178      0.34856825
       572.00000       1.7602237      0.34760957
       573.00000       1.7652665      0.34705923
       574.00000       1.7703307      0.34692969
       575.00000       1.7753984      0.34723424
       576.00000       1.7804492      0.34798684
       577.00000       1.7854594      0.34920182
       578.00000       1.7904021      0.35089360
       579.00000       1.7952468      0.35307635
       580.00000       1.7999588      0.35576354
       581.00000       1.8044990      0.35896743
       582.00000       1.8088234      0.36269844
       583.00000       1.8128827      0.36696434
       584.00000       1.8166221      0.37176925
       585.00000       1.8199806      0.37711246
       586.00000       1.8228911      0.38298686
       587.00000       1.8252803      0.38937715
       588.00000       1.8270689      0.39625762
       589.00000       1.8281729      0.40358950
       590.00000       1.8285047      0.41131807
       591.00000       1.8279762      0.41936958
       592.00000       1.8265029      0.42764825
       593.00000       1.8240097      0.43603415
       594.00000       1.8204381      0.44438247
       595.00000       1.8157551      0.45252532
       596.00000       1.8099623      0.46027691
       597.00000       1.8031040      0.46744269
       598.00000       1.7952721      0.47383222
       599.00000       1.7866065      0.47927454
       600.00000       1.7772886      0.48363380
       601.00000       1.7675297      0.48682216
       602.00000       1.7575543      0.48880728
       603.00000       1.7475814      0.48961297
       604.00000       1.7378083      0.48931280
       605.00000       1.7283977      0.48801851
       606.00000       1.7194713      0.48586564
       607.00000       1.7111088      0.48299929
       608.00000       1.7033517      0.47956192
       609.00000       1.6962098      0.47568456
       610.00000       1.6896692      0.47148153
       611.00000       1.6836998      0.46704827
       612.00000       1.6782621      0.46246159
       613.00000       1.6733122      0.45778134
       614.00000       1.6688055      0.45305281
       615.00000       1.6646990      0.44830942
       616.00000       1.6609523      0.44357508
       617.00000       1.6575287      0.43886627
       618.00000       1.6543950      0.43419362
       619.00000       1.6515210      0.42956305
       620.00000       1.6488802      0.42497654
       621.00000       1.6464489      0.42043265
       622.00000       1.6442066      0.41592691
       623.00000       1.6421364      0.41145207
       624.00000       1.6402249      0.40699858
       625.00000       1.6384630      0.40255500
       626.00000       1.6368460      0.39810875
       627.00000       1.6353743      0.39364700
       628.00000       1.6340530      0.38915771
       629.00000       1.6328926      0.38463084
       630.00000       1.6319077      0.38005959
       631.00000       1.6311169      0.37544156
       632.00000       1.6305417      0.37077979
       633.00000       1.6302047      0.36608349
       634.00000       1.6301286      0.36136842
       635.00000       1.6303342      0.35665697
       636.00000       1.6308392      0.35197770
       637.00000       1.6316563      0.34736469
       638.00000       1.6327925      0.34285640
       639.00000       1.6342479      0.33849447
       640.00000       1.6360147      0.33432233
       641.00000       1.6380777      0.33038371
       642.00000       1.6404136      0.32672128
       643.00000       1.6429911      0.32337520
       644.00000       1.6457715      0.32038185
       645.00000       1.6487093      0.31777256
       646.00000       1.6517521      0.31557239
       647.00000       1.6548420      0.31379889
       648.00000       1.6579161      0.31246090
       649.00000       1.6609078      0.31155720
       650.00000       1.6637479      0.31107528
       651.00000       1.6663669      0.31099009
       652.00000       1.6686968      0.31126295
       653.00000       1.6706743      0.31184089
       654.00000       1.6722438      0.31265657
       655.00000       1.6733620      0.31362900
       656.00000       1.6740009      0.31466556
       657.00000       1.6741522      0.31566524
       658.00000       1.6738303      0.31652338
       659.00000       1.6730740      0.31713757
       660.00000       1.6719461      0.31741449
       661.00000       1.6705313      0.31727669
       662.00000       1.6689313      0.31666871
       663.00000       1.6672584      0.31556144
       664.00000       1.6656269      0.31395406
       665.00000       1.6641454      0.31187314
       666.00000       1.6629092      0.30936900
       667.00000       1.6619945      0.30650991
       668.00000       1.6614559      0.30337494
       669.00000       1.6613253      0.30004656
       670.00000       1.6616151      0.29660409
       671.00000       1.6623213      0.29311886
       672.00000       1.6634298      0.28965152
       673.00000       1.6649207      0.28625181
       674.00000       1.6667737      0.28296048
       675.00000       1.6689702      0.27981270
       676.00000       1.6714943      0.27684209
       677.00000       1.6743306      0.27408431
       678.00000       1.6774615      0.27157921
       679.00000       1.6808626      0.26937093
       680.00000       1.6844986      0.26750574
       681.00000       1.6883202      0.26602778
       682.00000       1.6922627      0.26497337
       683.00000       1.6962476      0.26436453
       684.00000       1.7001859      0.26420256
       685.00000       1.7039845      0.26446272
       686.00000       1.7075557      0.26509088
       687.00000       1.7108276      0.26600355
       688.00000       1.7137565      0.26709242
       689.00000       1.7163371      0.26823418
       690.00000       1.7186089      0.26930531
       691.00000       1.7206567      0.27019970
       692.00000       1.7226020      0.27084590
       693.00000       1.7245890      0.27121960
       694.00000       1.7267651      0.27134890
       695.00000       1.7292629      0.27131120
       696.00000       1.7321857      0.27122388
       697.00000       1.7355988      0.27123156
       698.00000       1.7395267      0.27149346
       699.00000       1.7439541      0.27217290
       700.00000       1.7488293      0.27343008
       701.00000       1.7540669      0.27541761
       702.00000       1.7595497      0.27827778
       703.00000       1.7651281      0.28214018
       704.00000       1.7706192      0.28711849
       705.00000       1.7758040      0.29330654
       706.00000       1.7804240      0.30077464
       707.00000       1.7841724      0.30956656
       708.00000       1.7866705      0.31969110
       709.00000       1.7874272      0.33108757
       710.00000       1.7857977      0.34352768
       711.00000       1.7810174      0.35642812
       712.00000       1.7724346      0.36863513
       713.00000       1.7599989      0.37840865
       714.00000       1.7447718      0.38389539
       715.00000       1.7289136      0.38402559
       716.00000       1.7148807      0.37916523
       717.00000       1.7043912      0.37090067
       718.00000       1.6979703      0.36119517
       719.00000       1.6952069      0.35165551
       720.00000       1.6952661      0.34327327
       721.00000       1.6972739      0.33651285
       722.00000       1.7004891      0.33150361
       723.00000       1.7043342      0.32820017
       724.00000       1.7083652      0.32647875
       725.00000       1.7122298      0.32618150
       726.00000       1.7156340      0.32712897
       727.00000       1.7183222      0.32911574
       728.00000       1.7200703      0.33189819
       729.00000       1.7206930      0.33517944
       730.00000       1.7200680      0.33859750
       731.00000       1.7181763      0.34172747
       732.00000       1.7151538      0.34411488
       733.00000       1.7113261      0.34535281
       734.00000       1.7071883      0.34518940
       735.00000       1.7033078      0.34361510
       736.00000       1.7001798      0.34086962
       737.00000       1.6981116      0.33735323
       738.00000       1.6971919      0.33349175
       739.00000       1.6973485      0.32962810
       740.00000       1.6984445      0.32598440
       741.00000       1.7003565      0.32269108
       742.00000       1.7030039      0.31984720
       743.00000       1.7063282      0.31757035
       744.00000       1.7102498      0.31601121
       745.00000       1.7146306      0.31533361
       746.00000       1.7192578      0.31567477
       747.00000       1.7238540      0.31709969
       748.00000       1.7281153      0.31956017
       749.00000       1.7317823      0.32287899
       750.00000       1.7347248      0.32679421
       751.00000       1.7369768      0.33107776
       752.00000       1.7386468      0.33566137
       753.00000       1.7397325      0.34063741
       754.00000       1.7399942      0.34607723
       755.00000       1.7390433      0.35179005
       756.00000       1.7366190      0.35723429
       757.00000       1.7328621      0.36168973
       758.00000       1.7283741      0.36459793
       759.00000       1.7240097      0.36585053
       760.00000       1.7205307      0.36585655
       761.00000       1.7183085      0.36537727
       762.00000       1.7171837      0.36522139
       763.00000       1.7165271      0.36589780
       764.00000       1.7155325      0.36733552
       765.00000       1.7137077      0.36886818
       766.00000       1.7112863      0.36966498
       767.00000       1.7091085      0.36941520
       768.00000       1.7079165      0.36862148
       769.00000       1.7077295      0.36812306
       770.00000       1.7079574      0.36833375
       771.00000       1.7080929      0.36899529
       772.00000       1.7082176      0.36965185
       773.00000       1.7088182      0.37026971
       774.00000       1.7102220      0.37134308
       775.00000       1.7122918      0.37355547
       776.00000       1.7144370      0.37747523
       777.00000       1.7156615      0.38330364
       778.00000       1.7148173      0.39050773
       779.00000       1.7113015      0.39773574
       780.00000       1.7056759      0.40351643
       781.00000       1.6993526      0.40731984
       782.00000       1.6934331      0.40984053
       783.00000       1.6878970      0.41212980
       784.00000       1.6819233      0.41454251
       785.00000       1.6748335      0.41647647
       786.00000       1.6667759      0.41692218
       787.00000       1.6586958      0.41528792
       788.00000       1.6516813      0.41181578
       789.00000       1.6463495      0.40730601
       790.00000       1.6427445      0.40260759
       791.00000       1.6405571      0.39833218
       792.00000       1.6393506      0.39480121
       793.00000       1.6387395      0.39207525
       794.00000       1.6385462      0.39012178
       795.00000       1.6387073      0.38909809
       796.00000       1.6388863      0.38936658
       797.00000       1.6382736      0.39102000
       798.00000       1.6360493      0.39340476
       799.00000       1.6321361      0.39537347
       800.00000       1.6273514      0.39616017
       801.00000       1.6226547      0.39599602
       802.00000       1.6181784      0.39568644
       803.00000       1.6132434      0.39549327
       804.00000       1.6074234      0.39479493
       805.00000       1.6010999      0.39294934
       806.00000       1.5948826      0.38987944
       807.00000       1.5891865      0.38577607
       808.00000       1.5843417      0.38098758
       809.00000       1.5803352      0.37611585
       810.00000       1.5765347      0.37144574
       811.00000       1.5724209      0.36634289
       812.00000       1.5685545      0.35993261
       813.00000       1.5661847      0.35232068
       814.00000       1.5660507      0.34465776
       815.00000       1.5678669      0.33833215
       816.00000       1.5704543      0.33424307
       817.00000       1.5722919      0.33223551
       818.00000       1.5724998      0.33115740
       819.00000       1.5713368      0.32983969
       820.00000       1.5695449      0.32794754
       821.00000       1.5674441      0.32573012
       822.00000       1.5648842      0.32328387
       823.00000       1.5617269      0.32035303
       824.00000       1.5580974      0.31655641
       825.00000       1.5543844      0.31162147
       826.00000       1.5511007      0.30555498
       827.00000       1.5486463      0.29865909
       828.00000       1.5471591      0.29135660
       829.00000       1.5465361      0.28403133
       830.00000       1.5464580      0.27689707
       831.00000       1.5465709      0.26982367
       832.00000       1.5467911      0.26242323
       833.00000       1.5474188      0.25431328
       834.00000       1.5491017      0.24542157
       835.00000       1.5524786      0.23625878
       836.00000       1.5576987      0.22770450
       837.00000       1.5643908      0.22057735
       838.00000       1.5717775      0.21546888
       839.00000       1.5786809      0.21246192
       840.00000       1.5840100      0.21067207
       841.00000       1.5877948      0.20858874
       842.00000       1.5912878      0.20553478
       843.00000       1.5953901      0.20229166
       844.00000       1.5996236      0.19972626
       845.00000       1.6031008      0.19755464
       846.00000       1.6057828      0.19485077
       847.00000       1.6083723      0.19114802
       848.00000       1.6115323      0.18658321
       849.00000       1.6157093      0.18152073
       850.00000       1.6211731      0.17655844
       851.00000       1.6277207      0.17245198
       852.00000       1.6346142      0.16959751
       853.00000       1.6411134      0.16768820
       854.00000       1.6470707      0.16605576
       855.00000       1.6528722      0.16436911
       856.00000       1.6587762      0.16282202
       857.00000       1.6645644      0.16156608
       858.00000       1.6700174      0.16023877
       859.00000       1.6755364      0.15833812
       860.00000       1.6819448      0.15600778
       861.00000       1.6896237      0.15412892
       862.00000       1.6980732      0.15357224
       863.00000       1.7063168      0.15449182
       864.00000       1.7136655      0.15625243
       865.00000       1.7202303      0.15800438
       866.00000       1.7267009      0.15944361
       867.00000       1.7335900      0.16095270
       868.00000       1.7408666      0.16304462
       869.00000       1.7482595      0.16597018
       870.00000       1.7555201      0.16986712
       871.00000       1.7622459      0.17486231
       872.00000       1.7678360      0.18071679
       873.00000       1.7720660      0.18667402
       874.00000       1.7754574      0.19217982
       875.00000       1.7785441      0.19745423
       876.00000       1.7812302      0.20286206
       877.00000       1.7832545      0.20837319
       878.00000       1.7844856      0.21387593
       879.00000       1.7846820      0.21916702
       880.00000       1.7837474      0.22367396
       881.00000       1.7821339      0.22677468
       882.00000       1.7806861      0.22832334
       883.00000       1.7801125      0.22879432
       884.00000       1.7806019      0.22894543
       885.00000       1.7818098      0.22941702
       886.00000       1.7830366      0.23035534
       887.00000       1.7838087      0.23125602
       888.00000       1.7843008      0.23150159
       889.00000       1.7850525      0.23085375
       890.00000       1.7866008      0.22949345
       891.00000       1.7892252      0.22785951
       892.00000       1.7929645      0.22640125
       893.00000       1.7976526      0.22559647
       894.00000       1.8027713      0.22569674
       895.00000       1.8079422      0.22641510
       896.00000       1.8133396      0.22754357
       897.00000       1.8190606      0.22935262
       898.00000       1.8248382      0.23205739
       899.00000       1.8303766      0.23570571
       900.00000       1.8352493      0.24025899
       901.00000       1.8390349      0.24526888
       902.00000       1.8417915      0.25009512
       903.00000       1.8439231      0.25437864
       904.00000       1.8458582      0.25808677
       905.00000       1.8478655      0.26138868
       906.00000       1.8500543      0.26447071
       907.00000       1.8524321      0.26750802
       908.00000       1.8549368      0.27057432
       909.00000       1.8575907      0.27371481
       910.00000       1.8603787      0.27706963
       911.00000       1.8631668      0.28077300
       912.00000       1.8656842      0.28485018
       913.00000       1.8676927      0.28904545
       914.00000       1.8692509      0.29300624
       915.00000       1.8706321      0.29653585
       916.00000       1.8721643      0.29967337
       917.00000       1.8740505      0.30267897
       918.00000       1.8761958      0.30587400
       919.00000       1.8782894      0.30926732
       920.00000       1.8803250      0.31257873
       921.00000       1.8826127      0.31581500
       922.00000       1.8852125      0.31932261
       923.00000       1.8878532      0.32325370
       924.00000       1.8904141      0.32751753
       925.00000       1.8928890      0.33219264
       926.00000       1.8950075      0.33743132
       927.00000       1.8963007      0.34302297
