#SUBSTANCE=Anatase (TiO<sub>2</sub>)
#DESCRIPTION=Imaginary refractive index of anatase (TiO<sub>2</sub>)
#REFERENCE=Zeidler, S., Posch, T., Mutschke, H., Richter, H. and Wehrhan, O., 2011. Near-infrared absorption properties of oxygen-rich stardust analogs-The influence of coloring metal ions. Astronomy & Astrophysics, 526, p.A68.
#DOI=10.1051/0004-6361/201015219
#FORMAT=WAVL K
0.571	0.00124
0.572	0.0013
0.573	0.00125
0.574	0.00127
0.575	0.00125
0.576	0.00125
0.577	0.00124
0.578	0.00126
0.579	0.00122
0.58	0.00126
0.581	0.00123
0.582	0.00124
0.583	0.00123
0.584	0.00124
0.585	0.00124
0.586	0.00123
0.587	0.00122
0.588	0.00122
0.589	0.00121
0.59	0.00122
0.591	0.0012
0.592	0.00121
0.593	0.0012
0.594	0.0012
0.595	0.0012
0.596	0.00119
0.597	0.0012
0.598	0.00119
0.599	0.00118
0.60	0.00118
0.601	0.00117
0.602	0.00117
0.603	0.00117
0.604	0.00117
0.605	0.00117
0.606	0.00116
0.607	0.00116
0.608	0.00115
0.609	0.00116
0.61	0.00115
0.611	0.00115
0.612	0.00114
0.613	0.00114
0.614	0.00113
0.615	0.00113
0.616	0.00113
0.617	0.00113
0.618	0.00112
0.619	0.00113
0.62	0.0011
0.621	0.00112
0.622	0.00111
0.623	0.00111
0.624	0.0011
0.625	0.0011
0.626	0.00109
0.627	0.0011
0.628	0.00109
0.629	0.00109
0.63	0.00108
0.631	0.00109
0.632	0.00107
0.633	0.00108
0.634	0.00106
0.635	0.00107
0.636	0.00106
0.637	0.00106
0.638	0.00106
0.639	0.00106
0.64	0.00105
0.641	0.00105
0.642	0.00104
0.643	0.00105
0.644	0.00103
0.645	0.00104
0.646	0.00103
0.647	0.00103
0.648	0.00102
0.649	0.00103
0.65	0.00102
0.651	0.00102
0.652	0.00101
0.653	0.00102
0.654	0.001
0.655	0.00101
0.656	9.98563E-4
0.657	0.001
0.658	9.91688E-4
0.659	9.95219E-4
0.66	9.88868E-4
0.661	9.90185E-4
0.662	9.84993E-4
0.663	9.89613E-4
0.664	9.74697E-4
0.665	9.8002E-4
0.666	9.70095E-4
0.667	9.78581E-4
0.668	9.66774E-4
0.669	9.72076E-4
0.67	9.60766E-4
0.671	9.63184E-4
0.672	9.54966E-4
0.673	9.5812E-4
0.674	9.51048E-4
0.675	9.53799E-4
0.676	9.4643E-4
0.677	9.51297E-4
0.678	9.40347E-4
0.679	9.4405E-4
0.68	9.36384E-4
0.681	9.39682E-4
0.682	9.30895E-4
0.683	9.34395E-4
0.684	9.28031E-4
0.685	9.29507E-4
0.686	9.26794E-4
0.687	9.25531E-4
0.688	9.18223E-4
0.689	9.26046E-4
0.69	9.18306E-4
0.691	9.17405E-4
0.692	9.12301E-4
0.693	9.14168E-4
0.694	9.06377E-4
0.695	9.07624E-4
0.696	9.04971E-4
0.697	9.0594E-4
0.698	8.99438E-4
0.699	9.00587E-4
0.70	8.97288E-4
0.701	8.96539E-4
0.702	8.91299E-4
0.703	8.98241E-4
0.704	8.90583E-4
0.705	8.94236E-4
0.706	8.86623E-4
0.707	8.90075E-4
0.708	8.81456E-4
0.709	8.84555E-4
0.71	8.78962E-4
0.711	8.79357E-4
0.712	8.77544E-4
0.713	8.77603E-4
0.714	8.72781E-4
0.715	8.79247E-4
0.716	8.70524E-4
0.717	8.73195E-4
0.718	8.67517E-4
0.719	8.69926E-4
0.72	8.65805E-4
0.721	8.64812E-4
0.722	8.59815E-4
0.723	8.61862E-4
0.724	8.59048E-4
0.725	8.60131E-4
0.726	8.57762E-4
0.727	8.62033E-4
0.728	8.55149E-4
0.729	8.57194E-4
0.73	8.55665E-4
0.731	8.54896E-4
0.732	8.50429E-4
0.733	8.51474E-4
0.734	8.494E-4
0.735	8.4782E-4
0.736	8.46537E-4
0.737	8.48747E-4
0.738	8.42643E-4
0.739	8.4723E-4
0.74	8.41965E-4
0.741	8.44953E-4
0.742	8.39055E-4
0.743	8.41829E-4
0.744	8.37585E-4
0.745	8.38481E-4
0.746	8.35789E-4
0.747	8.36874E-4
0.748	8.30986E-4
0.749	8.33081E-4
0.75	8.28436E-4
0.751	8.31494E-4
0.752	8.28796E-4
0.753	8.29692E-4
0.754	8.2454E-4
0.755	8.25359E-4
0.756	8.23781E-4
0.757	8.24607E-4
0.758	8.20755E-4
0.759	8.23291E-4
0.76	8.20307E-4
0.761	8.22914E-4
0.762	8.17545E-4
0.763	8.20318E-4
0.764	8.16586E-4
0.765	8.1546E-4
0.766	8.13696E-4
0.767	8.16216E-4
0.768	8.11517E-4
0.769	8.12005E-4
0.77	8.09277E-4
0.771	8.08487E-4
0.772	8.08645E-4
0.773	8.1105E-4
0.774	8.05698E-4
0.775	8.06718E-4
0.776	8.07025E-4
0.777	8.04821E-4
0.778	8.04067E-4
0.779	8.0163E-4
0.78	8.02307E-4
0.781	8.00942E-4
0.782	7.94315E-4
0.783	8.00423E-4
0.784	7.94959E-4
0.785	7.98738E-4
0.786	7.95159E-4
0.787	7.97149E-4
0.788	7.92106E-4
0.789	7.91358E-4
0.79	7.8903E-4
0.791	7.89561E-4
0.792	7.90996E-4
0.793	7.88056E-4
0.794	7.87477E-4
0.795	7.88555E-4
0.796	7.84941E-4
0.797	7.83854E-4
0.798	7.86702E-4
0.799	7.89058E-4
0.80	7.83439E-4
0.801	7.78646E-4
0.802	7.77553E-4
0.803	7.77338E-4
0.804	7.75267E-4
0.805	7.77285E-4
0.806	7.71964E-4
0.807	7.73743E-4
0.808	7.72259E-4
0.809	7.72609E-4
0.81	7.74694E-4
0.811	7.69423E-4
0.812	7.65874E-4
0.813	7.66249E-4
0.814	7.63572E-4
0.815	7.64024E-4
0.816	7.6286E-4
0.817	7.60343E-4
0.818	7.61092E-4
0.819	7.59606E-4
0.82	7.5563E-4
0.821	7.57418E-4
0.822	7.54215E-4
0.823	7.54912E-4
0.824	7.5507E-4
0.825	7.5475E-4
0.826	7.51801E-4
0.827	7.55149E-4
0.828	7.50684E-4
0.829	7.5012E-4
0.83	7.48442E-4
0.831	7.44307E-4
0.832	7.45973E-4
0.833	7.48613E-4
0.834	7.45646E-4
0.835	7.40136E-4
0.836	7.42341E-4
0.837	7.41997E-4
0.838	7.40596E-4
0.839	7.3976E-4
0.84	7.38218E-4
0.841	7.3574E-4
0.842	7.39276E-4
0.843	7.33524E-4
0.844	7.28907E-4
0.845	7.32796E-4
0.846	7.33747E-4
0.847	7.29096E-4
0.848	7.26109E-4
0.849	7.29813E-4
0.85	7.30484E-4
0.851	7.28546E-4
0.852	7.27473E-4
0.853	7.27905E-4
0.854	7.22262E-4
0.855	7.25035E-4
0.856	7.17359E-4
0.857	7.18876E-4
0.858	7.14474E-4
0.859	7.19125E-4
0.86	7.13921E-4
0.861	6.72698E-4
0.862	6.85009E-4
0.863	6.917E-4
0.864	7.09788E-4
0.865	7.23815E-4
0.866	7.49467E-4
0.867	7.50082E-4
0.868	7.52711E-4
0.869	7.41795E-4
0.87	7.42644E-4
0.871	7.32793E-4
0.872	7.32069E-4
0.873	7.23768E-4
0.874	7.27158E-4
0.875	7.18345E-4
0.876	7.16924E-4
0.877	7.0815E-4
0.878	7.08635E-4
0.879	7.03568E-4
0.88	7.0585E-4
0.881	6.96017E-4
0.882	6.95896E-4
0.883	6.88872E-4
0.884	6.90102E-4
0.885	6.83164E-4
0.886	6.82901E-4
0.887	6.76338E-4
0.888	6.789E-4
0.889	6.70225E-4
0.89	6.71499E-4
0.891	6.66688E-4
0.892	6.68105E-4
0.893	6.5993E-4
0.894	6.59735E-4
0.895	6.53692E-4
0.896	6.54734E-4
0.897	6.49916E-4
0.898	6.51849E-4
0.899	6.46977E-4
0.90	6.4745E-4
0.901	6.4083E-4
0.902	6.44266E-4
0.903	6.38329E-4
0.904	6.38879E-4
0.905	6.35873E-4
0.906	6.35769E-4
0.907	6.31145E-4
0.908	6.32778E-4
0.909	6.27952E-4
0.91	6.28999E-4
0.911	6.25604E-4
0.912	6.26518E-4
0.913	6.22611E-4
0.914	6.23551E-4
0.915	6.20281E-4
0.916	6.21272E-4
0.917	6.17742E-4
0.918	6.18615E-4
0.919	6.14277E-4
0.92	6.14553E-4
0.921	6.1089E-4
0.922	6.10909E-4
0.923	6.08936E-4
0.924	6.08842E-4
0.925	6.06531E-4
0.926	6.05881E-4
0.927	6.03605E-4
0.928	6.0289E-4
0.929	6.00523E-4
0.93	5.99545E-4
0.931	5.9695E-4
0.932	5.96774E-4
0.933	5.94349E-4
0.934	5.93368E-4
0.935	5.91331E-4
0.936	5.90965E-4
0.937	5.87507E-4
0.938	5.88449E-4
0.939	5.85746E-4
0.94	5.84747E-4
0.941	5.82434E-4
0.942	5.82396E-4
0.943	5.79917E-4
0.944	5.80369E-4
0.945	5.75304E-4
0.946	5.75844E-4
0.947	5.73849E-4
0.948	5.74377E-4
0.949	5.71724E-4
0.95	5.7101E-4
0.951	5.69445E-4
0.952	5.69429E-4
0.953	5.66365E-4
0.954	5.65201E-4
0.955	5.62469E-4
0.956	5.62699E-4
0.957	5.59564E-4
0.958	5.60015E-4
0.959	5.57691E-4
0.96	5.57092E-4
0.961	5.54254E-4
0.962	5.5447E-4
0.963	5.52017E-4
0.964	5.52052E-4
0.965	5.49846E-4
0.966	5.49562E-4
0.967	5.46715E-4
0.968	5.46962E-4
0.969	5.44534E-4
0.97	5.44036E-4
0.971	5.41548E-4
0.972	5.41761E-4
0.973	5.39208E-4
0.974	5.39055E-4
0.975	5.36998E-4
0.976	5.36043E-4
0.977	5.34097E-4
0.978	5.3305E-4
0.979	5.31903E-4
0.98	5.30243E-4
0.981	5.27882E-4
0.982	5.28087E-4
0.983	5.26463E-4
0.984	5.25299E-4
0.985	5.23958E-4
0.986	5.23235E-4
0.987	5.21573E-4
0.988	5.21243E-4
0.989	5.19055E-4
0.99	5.17956E-4
0.991	5.15894E-4
0.992	5.15279E-4
0.993	5.13443E-4
0.994	5.13439E-4
0.995	5.1134E-4
0.996	5.1053E-4
0.997	5.09656E-4
0.998	5.08072E-4
0.999	5.06554E-4
1.00	5.05893E-4
1.001	5.0368E-4
1.002	5.02958E-4
1.003	5.01251E-4
1.004	5.00982E-4
1.005	4.98756E-4
1.006	4.98115E-4
1.007	4.96734E-4
1.008	4.95543E-4
1.009	4.94369E-4
1.01	4.93379E-4
1.011	4.92393E-4
1.012	4.90494E-4
1.013	4.89269E-4
1.014	4.88135E-4
1.015	4.8721E-4
1.016	4.85643E-4
1.017	4.84611E-4
1.018	4.83427E-4
1.019	4.82803E-4
1.02	4.80824E-4
1.021	4.80349E-4
1.022	4.78382E-4
1.023	4.77895E-4
1.024	4.76809E-4
1.025	4.7547E-4
1.026	4.74567E-4
1.027	4.73496E-4
1.028	4.72415E-4
1.029	4.71264E-4
1.03	4.69875E-4
1.031	4.6917E-4
1.032	4.67359E-4
1.033	4.67245E-4
1.034	4.65028E-4
1.035	4.64885E-4
1.036	4.63704E-4
1.037	4.62114E-4
1.038	4.61623E-4
1.039	4.59689E-4
1.04	4.58871E-4
1.041	4.5824E-4
1.042	4.56713E-4
1.043	4.56114E-4
1.044	4.55112E-4
1.045	4.53876E-4
1.046	4.52502E-4
1.047	4.52334E-4
1.048	4.50446E-4
1.049	4.49754E-4
1.05	4.47864E-4
1.051	4.47214E-4
1.052	4.45986E-4
1.053	4.45016E-4
1.054	4.43763E-4
1.055	4.44205E-4
1.056	4.42328E-4
1.057	4.41508E-4
1.058	4.40234E-4
1.059	4.39683E-4
1.06	4.37569E-4
1.061	4.371E-4
1.062	4.36632E-4
1.063	4.35622E-4
1.064	4.33674E-4
1.065	4.33348E-4
1.066	4.3243E-4
1.067	4.31574E-4
1.068	4.29956E-4
1.069	4.30124E-4
1.07	4.28652E-4
1.071	4.27938E-4
1.072	4.26448E-4
1.073	4.26677E-4
1.074	4.24486E-4
1.075	4.24288E-4
1.076	4.2365E-4
1.077	4.22131E-4
1.078	4.20782E-4
1.079	4.21665E-4
1.08	4.1932E-4
1.081	4.19162E-4
1.082	4.17908E-4
1.083	4.18309E-4
1.084	4.15516E-4
1.085	4.15539E-4
1.086	4.14252E-4
1.087	4.14076E-4
1.088	4.11649E-4
1.089	4.12229E-4
1.09	4.10974E-4
1.091	4.10736E-4
1.092	4.08423E-4
1.093	4.08671E-4
1.094	4.07581E-4
1.095	4.07776E-4
1.096	4.04868E-4
1.097	4.05033E-4
1.098	4.03775E-4
1.099	4.04736E-4
1.10	4.03083E-4
1.101	4.01821E-4
1.102	4.00425E-4
1.103	4.00825E-4
1.104	3.99703E-4
1.105	4.00257E-4
1.106	3.97224E-4
1.107	3.97146E-4
1.108	3.9592E-4
1.109	3.95839E-4
1.11	3.94099E-4
1.111	3.95151E-4
1.112	3.94187E-4
1.113	3.94398E-4
1.114	3.92937E-4
1.115	3.93054E-4
1.116	3.91639E-4
1.117	3.90461E-4
1.118	3.88906E-4
1.119	3.88709E-4
1.12	3.87987E-4
1.121	3.87147E-4
1.122	3.85751E-4
1.123	3.86133E-4
1.124	3.84818E-4
1.125	3.85077E-4
1.126	3.8374E-4
1.127	3.83533E-4
1.128	3.8189E-4
1.129	3.8234E-4
1.13	3.80936E-4
1.131	3.80818E-4
1.132	3.79375E-4
1.133	3.7879E-4
1.134	3.77644E-4
1.135	3.77752E-4
1.136	3.76668E-4
1.137	3.77E-4
1.138	3.7537E-4
1.139	3.76091E-4
1.14	3.74474E-4
1.141	3.74411E-4
1.142	3.727E-4
1.143	3.72835E-4
1.144	3.71774E-4
1.145	3.71685E-4
1.146	3.7041E-4
1.147	3.70432E-4
1.148	3.69296E-4
1.149	3.69542E-4
1.15	3.68245E-4
1.151	3.68374E-4
1.152	3.67123E-4
1.153	3.67267E-4
1.154	3.65734E-4
1.155	3.66151E-4
1.156	3.64695E-4
1.157	3.65178E-4
1.158	3.64E-4
1.159	3.63846E-4
1.16	3.62818E-4
1.161	3.63072E-4
1.162	3.61085E-4
1.163	3.61981E-4
1.164	3.60863E-4
1.165	3.60767E-4
1.166	3.5996E-4
1.167	3.59701E-4
1.168	3.58787E-4
1.169	3.5869E-4
1.17	3.57496E-4
1.171	3.57506E-4
1.172	3.56815E-4
1.173	3.56837E-4
1.174	3.55558E-4
1.175	3.55936E-4
1.176	3.55127E-4
1.177	3.54304E-4
1.178	3.53859E-4
1.179	3.54187E-4
1.18	3.52708E-4
1.181	3.5285E-4
1.182	3.52024E-4
1.183	3.52454E-4
1.184	3.51703E-4
1.185	3.51661E-4
1.186	3.51288E-4
1.187	3.51318E-4
1.188	3.51234E-4
1.189	3.51409E-4
1.19	3.51534E-4
1.191	3.48617E-4
1.192	3.47645E-4
1.193	3.47832E-4
1.194	3.47136E-4
1.195	3.46549E-4
1.196	3.46309E-4
1.197	3.45769E-4
1.198	3.45742E-4
1.199	3.44763E-4
1.20	3.45054E-4
1.201	3.43965E-4
1.202	3.44086E-4
1.203	3.42953E-4
1.204	3.4232E-4
1.205	3.41735E-4
1.206	3.40886E-4
1.207	3.40428E-4
1.208	3.39957E-4
1.209	3.41963E-4
1.21	3.42568E-4
1.211	3.41917E-4
1.212	3.41681E-4
1.213	3.40191E-4
1.214	3.39278E-4
1.215	3.38661E-4
1.216	3.38543E-4
1.217	3.38034E-4
1.218	3.37634E-4
1.219	3.37788E-4
1.22	3.36981E-4
1.221	3.36857E-4
1.222	3.3625E-4
1.223	3.35736E-4
1.224	3.35138E-4
1.225	3.34924E-4
1.226	3.34473E-4
1.227	3.34692E-4
1.228	3.35714E-4
1.229	3.34935E-4
1.23	3.34507E-4
1.231	3.34701E-4
1.232	3.33976E-4
1.233	3.3367E-4
1.234	3.32749E-4
1.235	3.32992E-4
1.236	3.3201E-4
1.237	3.32587E-4
1.238	3.3197E-4
1.239	3.31859E-4
1.24	3.30924E-4
1.241	3.30581E-4
1.242	3.30234E-4
1.243	3.30178E-4
1.244	3.2912E-4
1.245	3.29064E-4
1.246	3.29188E-4
1.247	3.29061E-4
1.248	3.29511E-4
1.249	3.30118E-4
1.25	3.29372E-4
1.251	3.29436E-4
1.252	3.29312E-4
1.253	3.28206E-4
1.254	3.27619E-4
1.255	3.27513E-4
1.256	3.27052E-4
1.257	3.27685E-4
1.258	3.27314E-4
1.259	3.27116E-4
1.26	3.26403E-4
1.261	3.26801E-4
1.262	3.26013E-4
1.263	3.26164E-4
1.264	3.25119E-4
1.265	3.25599E-4
1.266	3.26122E-4
1.267	3.2665E-4
1.268	3.26216E-4
1.269	3.25775E-4
1.27	3.24986E-4
1.271	3.25523E-4
1.272	3.24633E-4
1.273	3.25044E-4
1.274	3.24487E-4
1.275	3.2435E-4
1.276	3.23931E-4
1.277	3.23824E-4
1.278	3.25254E-4
1.279	3.251E-4
1.28	3.24233E-4
1.281	3.24599E-4
1.282	3.23698E-4
1.283	3.23922E-4
1.284	3.2339E-4
1.285	3.234E-4
1.286	3.23367E-4
1.287	3.2455E-4
1.288	3.24584E-4
1.289	3.24819E-4
1.29	3.23372E-4
1.291	3.24004E-4
1.292	3.22914E-4
1.293	3.24082E-4
1.294	3.23097E-4
1.295	3.24669E-4
1.296	3.24509E-4
1.297	3.23884E-4
1.298	3.23426E-4
1.299	3.22913E-4
1.30	3.22656E-4
1.301	3.23246E-4
1.302	3.23508E-4
1.303	3.24803E-4
1.304	3.24331E-4
1.305	3.23938E-4
1.306	3.23314E-4
1.307	3.23866E-4
1.308	3.2343E-4
1.309	3.24986E-4
1.31	3.24336E-4
1.311	3.24036E-4
1.312	3.22862E-4
1.313	3.23461E-4
1.314	3.2356E-4
1.315	3.25015E-4
1.316	3.24771E-4
1.317	3.25174E-4
1.318	3.24478E-4
1.319	3.24805E-4
1.32	3.241E-4
1.321	3.25576E-4
1.322	3.25449E-4
1.323	3.25306E-4
1.324	3.2487E-4
1.325	3.25873E-4
1.326	3.2537E-4
1.327	3.27338E-4
1.328	3.26369E-4
1.329	3.26649E-4
1.33	3.25802E-4
1.331	3.26391E-4
1.332	3.2761E-4
1.333	3.27709E-4
1.334	3.27039E-4
1.335	3.27285E-4
1.336	3.27036E-4
1.337	3.28872E-4
1.338	3.28542E-4
1.339	3.28378E-4
1.34	3.27993E-4
1.341	3.2891E-4
1.342	3.29184E-4
1.343	3.29371E-4
1.344	3.29095E-4
1.345	3.3006E-4
1.346	3.30561E-4
1.347	3.30803E-4
1.348	3.30199E-4
1.349	3.32147E-4
1.35	3.31141E-4
1.351	3.32405E-4
1.352	3.32893E-4
1.353	3.3338E-4
1.354	3.32884E-4
1.355	3.34531E-4
1.356	3.3459E-4
1.357	3.35499E-4
1.358	3.36032E-4
1.359	3.37008E-4
1.36	3.36006E-4
1.361	3.35748E-4
1.362	3.33734E-4
1.363	3.35227E-4
1.364	3.35479E-4
1.365	3.35869E-4
1.366	3.37258E-4
1.367	3.39121E-4
1.368	3.36381E-4
1.369	3.37775E-4
1.37	3.36775E-4
1.371	3.38097E-4
1.372	3.38445E-4
1.373	3.40573E-4
1.374	3.40251E-4
1.375	3.42E-4
1.376	3.4277E-4
1.377	3.42672E-4
1.378	3.4425E-4
1.379	3.45557E-4
1.38	3.45364E-4
1.381	3.45706E-4
1.382	3.44512E-4
1.383	3.44521E-4
1.384	3.44189E-4
1.385	3.45912E-4
1.386	3.45736E-4
1.387	3.48114E-4
1.388	3.48107E-4
1.389	3.50016E-4
1.39	3.50968E-4
1.391	3.51418E-4
1.392	3.50626E-4
1.393	3.52939E-4
1.394	3.51436E-4
1.395	3.52442E-4
1.396	3.52818E-4
1.397	3.54594E-4
1.398	3.53883E-4
1.399	3.55305E-4
1.40	3.55703E-4
1.401	3.56759E-4
1.402	3.56804E-4
1.403	3.58197E-4
1.404	3.57977E-4
1.405	3.59336E-4
1.406	3.59287E-4
1.407	3.59795E-4
1.408	3.60563E-4
1.409	3.62364E-4
1.41	3.62988E-4
1.411	3.64656E-4
1.412	3.64541E-4
1.413	3.66004E-4
1.414	3.66507E-4
1.415	3.67014E-4
1.416	3.68306E-4
1.417	3.69422E-4
1.418	3.69616E-4
1.419	3.70659E-4
1.42	3.71172E-4
1.421	3.72563E-4
1.422	3.72954E-4
1.423	3.7452E-4
1.424	3.74969E-4
1.425	3.76574E-4
1.426	3.77009E-4
1.427	3.78381E-4
1.428	3.7845E-4
1.429	3.81581E-4
1.43	3.81682E-4
1.431	3.82033E-4
1.432	3.82374E-4
1.433	3.84254E-4
1.434	3.84722E-4
1.435	3.85842E-4
1.436	3.86817E-4
1.437	3.88358E-4
1.438	3.8827E-4
1.439	3.90075E-4
1.44	3.91787E-4
1.441	3.93632E-4
1.442	3.92501E-4
1.443	3.94338E-4
1.444	3.95285E-4
1.445	3.95661E-4
1.446	3.96799E-4
1.447	3.98221E-4
1.448	3.98867E-4
1.449	4.00552E-4
1.45	4.01886E-4
1.451	4.04036E-4
1.452	4.05047E-4
1.453	4.06598E-4
1.454	4.0764E-4
1.455	4.0944E-4
1.456	4.09566E-4
1.457	4.10729E-4
1.458	4.11762E-4
1.459	4.12948E-4
1.46	4.13744E-4
1.461	4.16427E-4
1.462	4.16577E-4
1.463	4.17208E-4
1.464	4.18688E-4
1.465	4.2045E-4
1.466	4.22527E-4
1.467	4.22853E-4
1.468	4.24245E-4
1.469	4.26846E-4
1.47	4.28324E-4
1.471	4.28963E-4
1.472	4.2998E-4
1.473	4.31251E-4
1.474	4.32968E-4
1.475	4.34135E-4
1.476	4.35689E-4
1.477	4.36736E-4
1.478	4.40394E-4
1.479	4.41404E-4
1.48	4.41484E-4
1.481	4.43223E-4
1.482	4.45473E-4
1.483	4.46387E-4
1.484	4.47242E-4
1.485	4.49448E-4
1.486	4.51854E-4
1.487	4.54063E-4
1.488	4.54036E-4
1.489	4.55483E-4
1.49	4.57536E-4
1.491	4.58214E-4
1.492	4.60377E-4
1.493	4.63639E-4
1.494	4.65201E-4
1.495	4.65705E-4
1.496	4.66627E-4
1.497	4.67821E-4
1.498	4.70317E-4
1.499	4.73297E-4
1.5	4.74924E-4
1.501	4.7523E-4
1.502	4.77399E-4
1.503	4.78578E-4
1.504	4.8145E-4
1.505	4.84358E-4
1.506	4.85957E-4
1.507	4.8645E-4
1.508	4.88548E-4
1.509	4.90069E-4
1.51	4.93622E-4
1.511	4.94604E-4
1.512	4.96225E-4
1.513	4.97315E-4
1.514	4.99427E-4
1.515	5.0087E-4
1.516	5.05825E-4
1.517	5.05796E-4
1.518	5.07512E-4
1.519	5.08448E-4
1.52	5.11548E-4
1.521	5.14956E-4
1.522	5.1602E-4
1.523	5.17275E-4
1.524	5.1989E-4
1.525	5.20805E-4
1.526	5.24524E-4
1.527	5.2665E-4
1.528	5.28766E-4
1.529	5.29525E-4
1.53	5.33057E-4
1.531	5.35636E-4
1.532	5.37995E-4
1.533	5.38278E-4
1.534	5.40955E-4
1.535	5.42422E-4
1.536	5.46947E-4
1.537	5.48052E-4
1.538	5.50193E-4
1.539	5.51403E-4
1.54	5.54239E-4
1.541	5.56034E-4
1.542	5.60862E-4
1.543	5.61305E-4
1.544	5.64116E-4
1.545	5.64815E-4
1.546	5.68474E-4
1.547	5.71507E-4
1.548	5.74147E-4
1.549	5.74698E-4
1.55	5.77452E-4
1.551	5.78997E-4
1.552	5.84634E-4
1.553	5.85096E-4
1.554	5.87833E-4
1.555	5.88886E-4
1.556	5.92005E-4
1.557	5.9552E-4
1.558	5.97622E-4
1.559	5.98415E-4
1.56	6.01589E-4
1.561	6.0263E-4
1.562	6.08979E-4
1.563	6.08784E-4
1.564	6.11615E-4
1.565	6.13026E-4
1.566	6.16613E-4
1.567	6.20261E-4
1.568	6.23373E-4
1.569	6.2326E-4
1.57	6.26592E-4
1.571	6.27261E-4
1.572	6.3325E-4
1.573	6.3479E-4
1.574	6.37134E-4
1.575	6.37965E-4
1.576	6.41618E-4
1.577	6.44276E-4
1.578	6.49342E-4
1.579	6.4989E-4
1.58	6.52482E-4
1.581	6.53626E-4
1.582	6.57861E-4
1.583	6.61177E-4
1.584	6.64409E-4
1.585	6.65354E-4
1.586	6.69173E-4
1.587	6.70463E-4
1.588	6.76766E-4
1.589	6.77039E-4
1.59	6.80445E-4
1.591	6.81932E-4
1.592	6.88572E-4
1.593	6.8974E-4
1.594	6.91625E-4
1.595	6.92562E-4
1.596	6.96927E-4
1.597	6.99514E-4
1.598	7.05212E-4
1.599	7.04925E-4
1.6	7.09153E-4
1.601	7.10502E-4
1.602	7.16954E-4
1.603	7.18304E-4
1.604	7.21413E-4
1.605	7.22676E-4
1.606	7.26884E-4
1.607	7.31274E-4
1.608	7.34026E-4
1.609	7.35501E-4
1.61	7.39392E-4
1.611	7.41826E-4
1.612	7.48385E-4
1.613	7.48152E-4
1.614	7.51954E-4
1.615	7.52842E-4
1.616	7.58076E-4
1.617	7.62247E-4
1.618	7.64596E-4
1.619	7.65429E-4
1.62	7.69652E-4
1.621	7.74153E-4
1.622	7.78969E-4
1.623	7.79323E-4
1.624	7.84158E-4
1.625	7.85719E-4
1.626	7.92607E-4
1.627	7.939E-4
1.628	7.97365E-4
1.629	7.98693E-4
1.63	8.0302E-4
1.631	8.07482E-4
1.632	8.09578E-4
1.633	8.11169E-4
1.634	8.15198E-4
1.635	8.19665E-4
1.636	8.25757E-4
1.637	8.2561E-4
1.638	8.29429E-4
1.639	8.33018E-4
1.64	8.39347E-4
1.641	8.39636E-4
1.642	8.42598E-4
1.643	8.44877E-4
1.644	8.52549E-4
1.645	8.54138E-4
1.646	8.57314E-4
1.647	8.59091E-4
1.648	8.66319E-4
1.649	8.68263E-4
1.65	8.71668E-4
1.651	8.73059E-4
1.652	8.779E-4
1.653	8.83633E-4
1.654	8.85386E-4
1.655	8.86809E-4
1.656	8.91665E-4
1.657	8.97999E-4
1.658	9.00125E-4
1.659	9.01732E-4
1.66	9.07135E-4
1.661	9.13603E-4
1.662	9.16073E-4
1.663	9.17942E-4
1.664	9.23908E-4
1.665	9.2846E-4
1.666	9.31327E-4
1.667	9.34814E-4
1.668	9.4209E-4
1.669	9.48026E-4
1.67	9.53637E-4
1.671	9.46851E-4
1.672	9.49365E-4
1.673	9.52553E-4
1.674	9.56773E-4
1.675	9.66E-4
1.676	9.68142E-4
1.677	9.72406E-4
1.678	9.75759E-4
1.679	9.79357E-4
1.68	9.82881E-4
1.681	9.86414E-4
1.682	9.89989E-4
1.683	9.9418E-4
1.684	9.97645E-4
1.685	0.001
1.686	0.001
1.687	0.00101
1.688	0.00101
1.689	0.00102
1.69	0.00102
1.691	0.00102
1.692	0.00103
1.693	0.00103
1.694	0.00103
1.695	0.00104
1.696	0.00104
1.697	0.00105
1.698	0.00105
1.699	0.00105
1.7	0.00106
1.701	0.00106
1.702	0.00106
1.703	0.00107
1.704	0.00107
1.705	0.00108
1.706	0.00108
1.707	0.00109
1.708	0.00109
1.709	0.00109
1.71	0.0011
1.711	0.0011
1.712	0.0011
1.713	0.00111
1.714	0.00111
1.715	0.00112
1.716	0.00112
1.717	0.00113
1.718	0.00113
1.719	0.00113
1.72	0.00113
1.721	0.00114
1.722	0.00114
1.723	0.00115
1.724	0.00115
1.725	0.00115
1.726	0.00115
1.727	0.00117
1.728	0.00117
1.729	0.00117
1.73	0.00117
1.731	0.00118
1.732	0.00118
1.733	0.00118
1.734	0.00119
1.735	0.00119
1.736	0.00119
1.737	0.0012
1.738	0.0012
1.739	0.00121
1.74	0.00121
1.741	0.00121
1.742	0.00122
1.743	0.00123
1.744	0.00123
1.745	0.00123
1.746	0.00123
1.747	0.00124
1.748	0.00124
1.749	0.00124
1.75	0.00124
1.751	0.00125
1.752	0.00125
1.753	0.00126
1.754	0.00126
1.755	0.00127
1.756	0.00127
1.757	0.00128
1.758	0.00128
1.759	0.00129
1.76	0.00129
1.761	0.00129
1.762	0.00129
1.763	0.0013
1.764	0.0013
1.765	0.00132
1.766	0.00131
1.767	0.00133
1.768	0.00133
1.769	0.00133
1.77	0.00133
