#SUBSTANCE=Low-Fe Olivine
#DESCRIPTION=Refractive index of low-Fe olivine (Mg<sub>1.9</sub>Fe<sub>0.1</sub>SiO<sub>4</sub>) (E||y)
#REFERENCE=Zeidler, S., Posch, T., Mutschke, H., Richter, H. and Wehrhan, O., 2011. Near-infrared absorption properties of oxygen-rich stardust analogs-The influence of coloring metal ions. Astronomy & Astrophysics, 526, p.A68.
#DOI=10.1051/0004-6361/201015219
#FORMAT=WAVN N K
0	2.6982558	0
1.221   2.69827 1.001E-4
2.4417  2.6983  2.00175E-4
3.6624  2.69836 3.00351E-4
4.8831  2.69845 4.00525E-4
6.1038  2.69855 5.00701E-4
7.3245  2.69868 6.01076E-4
8.5452  2.69884 7.01551E-4
9.7659  2.69901 8.02126E-4
10.9866 2.69922 9.02901E-4
12.2073 2.69944 0.001
13.428  2.69969 0.0011
14.6487 2.69996 0.00121
15.8694 2.70026 0.00131
17.0901 2.70058 0.00141
18.3108 2.70093 0.00151
19.5315 2.7013  0.00161
20.7522 2.7017  0.00172
21.9729 2.70211 0.00182
23.1936 2.70256 0.00192
24.4143 2.70303 0.00203
25.635  2.70352 0.00213
26.8557 2.70404 0.00223
28.0764 2.70458 0.00234
29.2971 2.70515 0.00245
30.5178 2.70574 0.00255
31.7385 2.70636 0.00266
32.9592 2.707   0.00276
34.1799 2.70767 0.00287
35.4006 2.70837 0.00298
36.6213 2.70909 0.00309
37.842  2.70984 0.0032
39.0627 2.71061 0.00331
40.2834 2.71141 0.00342
41.5041 2.71224 0.00353
42.7248 2.71309 0.00364
43.9455 2.71397 0.00375
45.1662 2.71488 0.00387
46.3869 2.71582 0.00398
47.6076 2.71678 0.0041
48.8283 2.71777 0.00421
50.049  2.7188  0.00433
51.26969        2.71985 0.00445
52.49039        2.72092 0.00457
53.71109        2.72203 0.00469
54.93179        2.72317 0.00481
56.15249        2.72434 0.00493
57.37319        2.72554 0.00506
58.59389        2.72676 0.00518
59.81459        2.72802 0.00531
61.03529        2.72932 0.00543
62.25599        2.73064 0.00556
63.47669        2.732   0.00569
64.69739        2.73338 0.00582
65.91809        2.73481 0.00596
67.13879        2.73626 0.00609
68.35949        2.73775 0.00623
69.58019        2.73928 0.00637
70.80089        2.74084 0.00651
72.02159        2.74244 0.00665
73.24229        2.74407 0.00679
74.46299        2.74575 0.00694
75.68369        2.74746 0.00709
76.90439        2.74921 0.00724
78.12509        2.751   0.00739
79.34579        2.75283 0.00755
80.56649        2.7547  0.00771
81.78719        2.75662 0.00787
83.00789        2.75858 0.00804
84.22859        2.76059 0.0082
85.44929        2.76264 0.00838
86.66999        2.76474 0.00855
87.89069        2.76689 0.00873
89.11139        2.76909 0.00891
90.33209        2.77134 0.0091
91.55279        2.77365 0.0093
92.77349        2.77602 0.00949
93.99419        2.77844 0.0097
95.21489        2.78093 0.00991
96.43559        2.78348 0.01013
97.65629        2.7861  0.01035
98.87699        2.78879 0.01059
100.09769       2.79155 0.01083
101.31839       2.79439 0.01108
102.53909       2.79731 0.01135
103.75979       2.80032 0.01162
104.98049       2.80343 0.01191
106.20119       2.80664 0.01222
107.42189       2.80995 0.01255
108.64259       2.81338 0.0129
109.86329       2.81695 0.01327
111.08399       2.82065 0.01367
112.30469       2.8245  0.01411
113.52539       2.82852 0.01458
114.74609       2.83274 0.01511
115.96679       2.83717 0.01569
117.18749       2.84184 0.01634
118.40819       2.84678 0.01709
119.62889       2.85206 0.01795
120.84959       2.8577  0.01895
122.07029       2.86379 0.02013
123.29099       2.87042 0.02156
124.51169       2.8777  0.02333
125.73239       2.88578 0.02556
126.95309       2.89487 0.02844
128.17379       2.90525 0.03229
129.39449       2.91728 0.03763
130.61519       2.93146 0.04534
131.83589       2.94836 0.05703
133.05659       2.96838 0.0758
134.27729       2.99046 0.10777
135.49799       3.00671 0.16393
136.71869       2.98632 0.25233
137.93939       2.87994 0.32253
139.16009       2.75446 0.27911
140.38079       2.71351 0.18782
141.60149       2.72358 0.12323
142.82219       2.7454  0.08611
144.04289       2.76661 0.06477
145.26359       2.78495 0.0519
146.48429       2.80056 0.04373
147.70499       2.814   0.03831
148.92569       2.8258  0.03459
150.14639       2.83635 0.03197
151.36708       2.84594 0.0301
152.58778       2.85481 0.02874
153.80848       2.86312 0.02776
155.02918       2.87099 0.02705
156.24988       2.87851 0.02655
157.47058       2.88578 0.02621
158.69128       2.89283 0.02599
159.91198       2.89973 0.02588
161.13268       2.90651 0.02585
162.35338       2.9132  0.02589
163.57408       2.91983 0.02599
164.79478       2.92642 0.02614
166.01548       2.93299 0.02634
167.23618       2.93956 0.02657
168.45688       2.94614 0.02684
169.67758       2.95274 0.02714
170.89828       2.95937 0.02746
172.11898       2.96605 0.02782
173.33968       2.97279 0.0282
174.56038       2.97958 0.02861
175.78108       2.98645 0.02903
177.00178       2.99339 0.02949
178.22248       3.00042 0.02996
179.44318       3.00754 0.03046
180.66388       3.01476 0.03097
181.88458       3.02208 0.03151
183.10528       3.02951 0.03208
184.32598       3.03706 0.03266
185.54668       3.04473 0.03327
186.76738       3.05253 0.0339
187.98808       3.06047 0.03455
189.20878       3.06854 0.03523
190.42948       3.07676 0.03593
191.65018       3.08514 0.03666
192.87088       3.09367 0.03742
194.09158       3.10238 0.0382
195.31228       3.11125 0.03902
196.53298       3.12031 0.03986
197.75368       3.12955 0.04073
198.97438       3.13899 0.04164
200.19508       3.14863 0.04258
201.41578       3.15848 0.04356
202.63648       3.16855 0.04458
203.85718       3.17885 0.04563
205.07788       3.18939 0.04673
206.29858       3.20017 0.04787
207.51928       3.21121 0.04906
208.73998       3.22252 0.0503
209.96068       3.23411 0.05158
211.18138       3.246   0.05293
212.40208       3.25818 0.05433
213.62278       3.27069 0.05579
214.84348       3.28352 0.05731
216.06418       3.2967  0.05891
217.28488       3.31025 0.06058
218.50558       3.32417 0.06233
219.72628       3.33849 0.06416
220.94698       3.35323 0.06608
222.16768       3.3684  0.06809
223.38838       3.38403 0.07021
224.60908       3.40014 0.07244
225.82978       3.41676 0.07478
227.05048       3.43391 0.07725
228.27118       3.45162 0.07986
229.49188       3.46993 0.08262
230.71258       3.48886 0.08554
231.93328       3.50845 0.08863
233.15398       3.52874 0.0919
234.37468       3.54977 0.09538
235.59538       3.57159 0.09909
236.81608       3.59425 0.10303
238.03678       3.6178  0.10724
239.25748       3.6423  0.11175
240.47818       3.66782 0.11657
241.69888       3.69442 0.12175
242.91958       3.72218 0.12732
244.14028       3.75119 0.13332
245.36098       3.78154 0.1398
246.58168       3.81334 0.14682
247.80238       3.8467  0.15444
249.02308       3.88175 0.16274
250.24378       3.91863 0.1718
251.46447       3.95751 0.18172
252.68517       3.99856 0.19262
253.90587       4.04198 0.20464
255.12657       4.08801 0.21794
256.34727       4.1369  0.23273
257.56797       4.18894 0.24922
258.78867       4.24447 0.26772
260.00937       4.30388 0.28857
261.23007       4.36758 0.31219
262.45077       4.43608 0.33911
263.67147       4.50996 0.36999
264.89217       4.58987 0.40567
266.11287       4.67655 0.4472
267.33357       4.77084 0.49594
268.55427       4.87369 0.55367
269.77497       4.98613 0.62273
270.99567       5.1092  0.70625
272.21637       5.24384 0.80844
273.43707       5.39066 0.935
274.65777       5.54937 1.09376
275.87847       5.71779 1.29539
277.09917       5.8898  1.55403
278.31987       6.05174 1.88736
279.54057       6.17656 2.3141
280.76127       6.21669 2.84471
281.98197       6.10372 3.46081
283.20267       5.77238 4.08902
284.42337       5.21617 4.60562
285.64407       4.5213  4.90407
286.86477       3.81698 4.96486
288.08547       3.19605 4.84418
289.30617       2.6913  4.61624
290.52687       2.29726 4.33769
291.74757       1.9949  4.04235
292.96827       1.76441 3.74759
294.18897       1.58959 3.46114
295.40967       1.45834 3.18555
296.63037       1.36216 2.92091
297.85107       1.29538 2.66616
299.07177       1.25463 2.41996
300.29247       1.23839 2.18116
301.51317       1.2467  1.94944
302.73387       1.28069 1.72591
303.95457       1.34159 1.51391
305.17527       1.42904 1.31895
306.39597       1.5393  1.14722
307.61667       1.66536 1.00276
308.83737       1.7993  0.88575
310.05807       1.93486 0.79325
311.27877       2.06833 0.72111
312.49947       2.19804 0.66535
313.72017       2.32361 0.6227
314.94087       2.44536 0.59069
316.16157       2.56395 0.56749
317.38227       2.68019 0.55183
318.60297       2.79496 0.54284
319.82367       2.90915 0.53998
321.04437       3.02366 0.54298
322.26507       3.13941 0.55184
323.48577       3.25735 0.56678
324.70647       3.37849 0.58827
325.92717       3.50383 0.61708
327.14787       3.6345  0.65431
328.36857       3.77168 0.70154
329.58927       3.91661 0.76089
330.80997       4.07051 0.83528
332.03067       4.23455 0.92874
333.25137       4.40952 1.04678
334.47207       4.59535 1.19698
335.69277       4.79009 1.38974
336.91347       4.98792 1.63887
338.13417       5.17562 1.96171
339.35487       5.32671 2.37638
340.57557       5.39469 2.89259
341.79627       5.31335 3.49093
343.01697       5.02192 4.0985
344.23767       4.51912 4.59674
345.45837       3.89109 4.88917
346.67907       3.25869 4.96366
347.89977       2.70437 4.87565
349.12047       2.2551  4.69363
350.34117       1.90418 4.46848
351.56186       1.63363 4.23011
352.78256       1.42528 3.99378
354.00326       1.26426 3.76622
355.22396       1.13942 3.54975
356.44466       1.04265 3.34447
357.66536       0.96819 3.14947
358.88606       0.91197 2.96339
360.10676       0.87122 2.78473
361.32746       0.84421 2.612
362.54816       0.83004 2.44384
363.76886       0.82855 2.27899
364.98956       0.84034 2.11652
366.21026       0.86677 1.95592
367.43096       0.90993 1.7975
368.65166       0.97247 1.64282
369.87236       1.05697 1.49531
371.09306       1.16461 1.36039
372.31376       1.29385 1.24442
373.53446       1.44015 1.15257
374.75516       1.59772 1.0872
375.97586       1.76158 1.04828
377.19656       1.92852 1.03482
378.41726       2.09679 1.04626
379.63796       2.26542 1.08324
380.85866       2.43329 1.148
382.07936       2.59816 1.2445
383.30006       2.75528 1.37833
384.52076       2.89562 1.55595
385.74146       3.00351 1.78227
386.96216       3.05534 2.05532
388.18286       3.02306 2.35786
389.40356       2.88709 2.65155
390.62426       2.65468 2.88553
391.84496       2.36479 3.02135
393.06566       2.06844 3.05212
394.28636       1.80431 2.99718
395.50706       1.59066 2.88399
396.72776       1.43148 2.73565
397.94846       1.32498 2.56762
399.16916       1.26949 2.38957
400.38986       1.26649 2.20872
401.61056       1.32172 2.03444
402.83126       1.44322 1.88378
404.05196       1.6341  1.78599
405.27266       1.88178 1.78054
406.49336       2.14927 1.90976
407.71406       2.36121 2.2071
408.93476       2.38959 2.64788
410.15546       2.13791 3.06685
411.37616       1.71324 3.26647
412.59686       1.31421 3.2436
413.81756       1.02162 3.1085
415.03826       0.82422 2.94105
416.25896       0.6922  2.77479
417.47966       0.60253 2.61992
418.70036       0.54059 2.47786
419.92106       0.49749 2.34733
421.14176       0.46783 2.22638
422.36246       0.4483  2.11313
423.58316       0.43691 2.00591
424.80386       0.43252 1.90336
426.02456       0.43461 1.80433
427.24526       0.44313 1.70791
428.46596       0.45845 1.6134
429.68666       0.48135 1.52043
430.90736       0.51298 1.42903
432.12806       0.5549  1.33981
433.34876       0.60879 1.25427
434.56946       0.67615 1.1751
435.79016       0.7575  1.10609
437.01086       0.85175 1.05166
438.23156       0.95606 1.01577
439.45226       1.06645 1.00121
440.67296       1.17871 1.00964
441.89366       1.28863 1.04217
443.11436       1.39165 1.09987
444.33506       1.48198 1.18362
445.55576       1.55186 1.29313
446.77646       1.59147 1.42504
447.99716       1.59065 1.57063
449.21786       1.54286 1.7147
450.43856       1.45016 1.83839
451.65925       1.32483 1.92587
452.87995       1.1849  1.97049
454.10065       1.04703 1.97537
455.32135       0.922   1.94928
456.54205       0.81445 1.90196
457.76275       0.72485 1.84152
458.98345       0.65156 1.77369
460.20415       0.59225 1.70219
461.42485       0.54463 1.62921
462.64555       0.5067  1.556
463.86625       0.47684 1.48315
465.08695       0.45379 1.41087
466.30765       0.43664 1.33914
467.52835       0.42476 1.26779
468.74905       0.41775 1.19659
469.96975       0.41548 1.12525
471.19045       0.41802 1.0535
472.41115       0.42572 0.98111
473.63185       0.43917 0.90801
474.85255       0.45925 0.83433
476.07325       0.48708 0.76071
477.29395       0.52374 0.68841
478.51465       0.5699  0.61952
479.73535       0.62519 0.55654
480.95605       0.68799 0.50168
482.17675       0.75595 0.45606
483.39745       0.82681 0.4196
484.61815       0.89903 0.39146
485.83885       0.97183 0.37065
487.05955       1.04507 0.35632
488.28025       1.11903 0.34797
489.50095       1.19428 0.34551
490.72165       1.27161 0.34934
491.94235       1.35199 0.36052
493.16305       1.43644 0.38106
494.38375       1.52583 0.41446
495.60445       1.62014 0.46664
496.82515       1.7164  0.54725
498.04585       1.80326 0.67018
499.26655       1.85008 0.84704
500.48725       1.80221 1.05805
501.70795       1.63159 1.21702
502.92865       1.41205 1.23999
504.14935       1.24702 1.14618
505.37005       1.17332 1.00626
506.59075       1.17754 0.87297
507.81145       1.23227 0.77079
509.03215       1.31332 0.70476
510.25285       1.40537 0.67077
511.47355       1.50082 0.66311
512.69425       1.59646 0.67767
513.91495       1.69088 0.71256
515.13565       1.78291 0.76779
516.35635       1.87063 0.84486
517.57705       1.95046 0.94624
518.79775       2.01615 1.07451
520.01845       2.05804 1.2306
521.23915       2.06313 1.41088
522.45985       2.01794 1.60367
523.68055       1.91489 1.78806
524.90125       1.75943 1.93912
526.12195       1.57088 2.03843
527.34265       1.37408 2.08171
528.56335       1.18913 2.07731
529.78405       1.02682 2.03892
531.00475       0.89008 1.97952
532.22545       0.77729 1.90887
533.44615       0.68507 1.83337
534.66685       0.60976 1.75684
535.88755       0.54807 1.68146
537.10825       0.4973  1.60832
538.32895       0.45528 1.53789
539.54965       0.42031 1.4703
540.77035       0.39108 1.40548
541.99105       0.36656 1.34324
543.21175       0.34594 1.28336
544.43245       0.32862 1.22558
545.65315       0.31411 1.16966
546.87385       0.30203 1.11534
548.09455       0.29209 1.0624
549.31525       0.2841  1.01059
550.53595       0.27789 0.95971
551.75664       0.27337 0.90955
552.97734       0.2705  0.8599
554.19804       0.26929 0.81059
555.41874       0.26982 0.76143
556.63944       0.27223 0.71227
557.86014       0.27673 0.66297
559.08084       0.28363 0.61347
560.30154       0.29336 0.56378
561.52224       0.30643 0.5141
562.74294       0.3234  0.4649
563.96364       0.34473 0.41698
565.18434       0.37057 0.37151
566.40504       0.40045 0.32976
567.62574       0.43331 0.29273
568.84644       0.46777 0.26082
570.06714       0.50254 0.23381
571.28784       0.53669 0.21112
572.50854       0.56966 0.19203
573.72924       0.60117 0.17588
574.94994       0.63113 0.16211
576.17064       0.65955 0.15026
577.39134       0.6865  0.13997
578.61204       0.71208 0.13096
579.83274       0.73637 0.12301
581.05344       0.75948 0.11595
582.27414       0.78151 0.10964
583.49484       0.80253 0.10396
584.71554       0.82263 0.09883
585.93624       0.84188 0.09417
587.15694       0.86034 0.08991
588.37764       0.87807 0.08602
589.59834       0.89513 0.08244
590.81904       0.91156 0.07914
592.03974       0.92741 0.07609
593.26044       0.94271 0.07327
594.48114       0.9575  0.07064
595.70184       0.97182 0.06819
596.92254       0.98568 0.0659
598.14324       0.99913 0.06376
599.36394       1.01219 0.06175
600.58464       1.02487 0.05986
601.80534       1.0372  0.05809
603.02604       1.0492  0.05642
604.24674       1.06089 0.05484
605.46744       1.07228 0.05335
606.68814       1.08339 0.05194
607.90884       1.09423 0.0506
609.12954       1.10482 0.04933
610.35024       1.11516 0.04812
611.57094       1.12528 0.04698
612.79164       1.13518 0.04589
614.01234       1.14487 0.04485
615.23304       1.15436 0.04386
616.45374       1.16366 0.04292
617.67444       1.17277 0.04201
618.89514       1.18172 0.04115
620.11584       1.1905  0.04033
621.33654       1.19911 0.03954
622.55724       1.20758 0.03879
623.77794       1.2159  0.03806
624.99864       1.22408 0.03737
626.21934       1.23213 0.0367
627.44004       1.24004 0.03606
628.66074       1.24783 0.03545
629.88144       1.25551 0.03486
631.10214       1.26307 0.0343
632.32284       1.27052 0.03375
633.54354       1.27786 0.03323
634.76424       1.2851  0.03272
635.98494       1.29224 0.03224
637.20564       1.29929 0.03177
638.42634       1.30625 0.03132
639.64704       1.31312 0.03089
640.86774       1.31991 0.03048
642.08844       1.32662 0.03007
643.30914       1.33325 0.02969
644.52984       1.3398  0.02931
645.75054       1.34628 0.02896
646.97124       1.35269 0.02861
648.19194       1.35904 0.02828
649.41264       1.36532 0.02795
650.63334       1.37154 0.02764
651.85403       1.3777  0.02734
653.07473       1.38381 0.02706
654.29543       1.38985 0.02678
655.51613       1.39585 0.02651
656.73683       1.40179 0.02625
657.95753       1.40769 0.026
659.17823       1.41354 0.02577
660.39893       1.41934 0.02554
661.61963       1.4251  0.02531
662.84033       1.43082 0.0251
664.06103       1.4365  0.0249
665.28173       1.44214 0.0247
666.50243       1.44774 0.02451
667.72313       1.45331 0.02433
668.94383       1.45885 0.02415
670.16453       1.46435 0.02399
671.38523       1.46983 0.02383
672.60593       1.47528 0.02368
673.82663       1.4807  0.02353
675.04733       1.48609 0.02339
676.26803       1.49146 0.02326
677.48873       1.49681 0.02313
678.70943       1.50214 0.02301
679.93013       1.50745 0.0229
681.15083       1.51274 0.02279
682.37153       1.51801 0.02269
683.59223       1.52326 0.02259
684.81293       1.5285  0.0225
686.03363       1.53373 0.02242
687.25433       1.53895 0.02234
688.47503       1.54415 0.02227
689.69573       1.54935 0.0222
690.91643       1.55454 0.02214
692.13713       1.55972 0.02208
693.35783       1.56489 0.02203
694.57853       1.57006 0.02199
695.79923       1.57523 0.02195
697.01993       1.5804  0.02192
698.24063       1.58556 0.02189
699.46133       1.59073 0.02187
700.68203       1.5959  0.02185
701.90273       1.60107 0.02184
703.12343       1.60624 0.02183
704.34413       1.61142 0.02183
705.56483       1.61661 0.02183
706.78553       1.62181 0.02184
708.00623       1.62702 0.02186
709.22693       1.63223 0.02188
710.44763       1.63746 0.02191
711.66833       1.64271 0.02194
712.88903       1.64797 0.02198
714.10973       1.65324 0.02202
715.33043       1.65853 0.02207
716.55113       1.66385 0.02213
717.77183       1.66918 0.02219
718.99253       1.67453 0.02226
720.21323       1.67991 0.02233
721.43393       1.68532 0.02242
722.65463       1.69075 0.0225
723.87533       1.6962  0.0226
725.09603       1.70169 0.0227
726.31673       1.70721 0.0228
727.53743       1.71277 0.02292
728.75813       1.71836 0.02304
729.97883       1.72398 0.02317
731.19953       1.72965 0.02331
732.42023       1.73535 0.02345
733.64093       1.7411  0.0236
734.86163       1.74689 0.02376
736.08233       1.75273 0.02393
737.30303       1.75862 0.02411
738.52373       1.76456 0.02429
739.74443       1.77055 0.02449
740.96513       1.77659 0.02469
742.18583       1.7827  0.02491
743.40653       1.78886 0.02513
744.62723       1.79509 0.02537
745.84793       1.80138 0.02561
747.06863       1.80774 0.02587
748.28933       1.81417 0.02614
749.51003       1.82068 0.02641
750.73073       1.82726 0.02671
751.95142       1.83392 0.02701
753.17212       1.84067 0.02733
754.39282       1.8475  0.02766
755.61352       1.85442 0.02801
756.83422       1.86144 0.02837
758.05492       1.86855 0.02875
759.27562       1.87577 0.02914
760.49632       1.88309 0.02955
