#DISTRIBUTEDBY=Aerosol Refractive Index Archive (www.atm.ox.ac.uk/project/RI/)
#DESCRIPTION=Refractive indices of Olivine from 0 to 5000 cm-1.
#SUBSTANCE=Olivine
#SAMPLEFORM=Solid
#TEMPERATURE=
#CONCENTRATION=
#REFERENCE=D. Fabian, Th. Henning, C. Jäger, H. Mutschke, J. Dorschner, O. Werhan, Astron. Astrophys. 378, 228 (2001).
#CONTACT=
#COMMENT=Optical constants in Z ORIENTATION (i.e. E||z) of a natural olivine single crystal
#FORMAT=WAVN N K 
 0.00000	2.468584	0.000000
 1.22100	2.468590	0.000078
 2.44100	2.468611	0.000156
 3.66200	2.468645	0.000234
 4.88300	2.468693	0.000312
 6.10300	2.468754	0.000391
 7.32400	2.468829	0.000469
 8.54500	2.468918	0.000547
 9.76600	2.469020	0.000626
 10.98600	2.469137	0.000704
 12.20700	2.469267	0.000783
 13.42800	2.469410	0.000861
 14.64800	2.469568	0.000940
 15.86900	2.469739	0.001019
 17.09000	2.469924	0.001098
 18.31000	2.470123	0.001178
 19.53100	2.470335	0.001257
 20.75200	2.470562	0.001337
 21.97300	2.470803	0.001416
 23.19300	2.471057	0.001496
 24.41400	2.471326	0.001577
 25.63500	2.471608	0.001657
 26.85500	2.471905	0.001738
 28.07600	2.472216	0.001819
 29.29700	2.472541	0.001900
 30.51700	2.472880	0.001982
 31.73800	2.473233	0.002063
 32.95900	2.473601	0.002146
 34.18000	2.473983	0.002228
 35.40000	2.474379	0.002311
 36.62100	2.474790	0.002394
 37.84200	2.475216	0.002477
 39.06200	2.475656	0.002561
 40.28300	2.476110	0.002645
 41.50400	2.476580	0.002730
 42.72400	2.477064	0.002815
 43.94500	2.477563	0.002901
 45.16600	2.478077	0.002987
 46.38700	2.478606	0.003073
 47.60700	2.479150	0.003160
 48.82800	2.479710	0.003247
 50.04900	2.480284	0.003335
 51.26900	2.480874	0.003423
 52.49000	2.481480	0.003512
 53.71100	2.482101	0.003602
 54.93100	2.482737	0.003692
 56.15200	2.483389	0.003782
 57.37300	2.484058	0.003873
 58.59400	2.484741	0.003965
 59.81400	2.485442	0.004058
 61.03500	2.486158	0.004151
 62.25600	2.486890	0.004244
 63.47600	2.487639	0.004339
 64.69700	2.488405	0.004434
 65.91800	2.489187	0.004530
 67.13800	2.489985	0.004626
 68.35900	2.490801	0.004724
 69.58000	2.491633	0.004822
 70.80100	2.492483	0.004921
 72.02100	2.493350	0.005021
 73.24200	2.494235	0.005121
 74.46300	2.495136	0.005223
 75.68300	2.496056	0.005325
 76.90400	2.496994	0.005429
 78.12500	2.497949	0.005533
 79.34500	2.498923	0.005638
 80.56600	2.499915	0.005745
 81.78700	2.500926	0.005852
 83.00800	2.501955	0.005960
 84.22800	2.503004	0.006070
 85.44900	2.504071	0.006180
 86.67000	2.505157	0.006292
 87.89000	2.506263	0.006404
 89.11100	2.507389	0.006518
 90.33200	2.508535	0.006634
 91.55200	2.509700	0.006750
 92.77300	2.510886	0.006868
 93.99400	2.512093	0.006987
 95.21500	2.513320	0.007107
 96.43500	2.514568	0.007229
 97.65600	2.515837	0.007352
 98.87700	2.517128	0.007476
 100.09700	2.518440	0.007602
 101.31800	2.519774	0.007730
 102.53900	2.521131	0.007859
 103.75900	2.522509	0.007990
 104.98000	2.523911	0.008122
 106.20100	2.525336	0.008256
 107.42200	2.526783	0.008392
 108.64200	2.528255	0.008529
 109.86300	2.529750	0.008669
 111.08400	2.531270	0.008810
 112.30400	2.532814	0.008953
 113.52500	2.534383	0.009098
 114.74600	2.535977	0.009245
 115.96600	2.537597	0.009394
 117.18700	2.539243	0.009546
 118.40800	2.540915	0.009699
 119.62900	2.542613	0.009855
 120.84900	2.544339	0.010013
 122.07000	2.546092	0.010173
 123.29100	2.547873	0.010336
 124.51100	2.549681	0.010501
 125.73200	2.551519	0.010669
 126.95300	2.553386	0.010839
 128.17300	2.555282	0.011012
 129.39400	2.557208	0.011188
 130.61500	2.559165	0.011367
 131.83600	2.561153	0.011549
 133.05600	2.563172	0.011734
 134.27700	2.565223	0.011921
 135.49800	2.567307	0.012113
 136.71800	2.569424	0.012307
 137.93900	2.571574	0.012505
 139.16000	2.573759	0.012706
 140.38000	2.575979	0.012911
 141.60100	2.578233	0.013119
 142.82200	2.580524	0.013331
 144.04300	2.582852	0.013548
 145.26300	2.585217	0.013768
 146.48400	2.587620	0.013992
 147.70500	2.590062	0.014221
 148.92500	2.592544	0.014454
 150.14600	2.595065	0.014692
 151.36700	2.597628	0.014934
 152.58700	2.600233	0.015182
 153.80800	2.602880	0.015434
 155.02900	2.605571	0.015692
 156.25000	2.608306	0.015955
 157.47000	2.611087	0.016223
 158.69100	2.613914	0.016497
 159.91200	2.616788	0.016777
 161.13200	2.619711	0.017064
 162.35300	2.622683	0.017356
 163.57400	2.625705	0.017655
 164.79400	2.628779	0.017961
 166.01500	2.631906	0.018274
 167.23600	2.635086	0.018594
 168.45700	2.638322	0.018922
 169.67700	2.641613	0.019257
 170.89800	2.644963	0.019601
 172.11900	2.648372	0.019953
 173.33900	2.651841	0.020313
 174.56000	2.655373	0.020683
 175.78100	2.658968	0.021062
 177.00100	2.662628	0.021451
 178.22200	2.666355	0.021850
 179.44300	2.670150	0.022259
 180.66400	2.674016	0.022680
 181.88400	2.677954	0.023112
 183.10500	2.681966	0.023555
 184.32600	2.686055	0.024012
 185.54600	2.690221	0.024480
 186.76700	2.694468	0.024963
 187.98800	2.698798	0.025459
 189.20800	2.703213	0.025970
 190.42900	2.707715	0.026496
 191.65000	2.712308	0.027039
 192.87100	2.716993	0.027597
 194.09100	2.721774	0.028174
 195.31200	2.726654	0.028768
 196.53300	2.731636	0.029382
 197.75300	2.736722	0.030015
 198.97400	2.741917	0.030670
 200.19500	2.747224	0.031346
 201.41500	2.752646	0.032046
 202.63600	2.758188	0.032770
 203.85700	2.763854	0.033519
 205.07800	2.769647	0.034295
 206.29800	2.775573	0.035099
 207.51900	2.781636	0.035933
 208.74000	2.787841	0.036799
 209.96000	2.794193	0.037697
 211.18100	2.800698	0.038630
 212.40200	2.807363	0.039600
 213.62200	2.814192	0.040609
 214.84300	2.821193	0.041660
 216.06400	2.828372	0.042754
 217.28500	2.835737	0.043894
 218.50500	2.843295	0.045084
 219.72600	2.851055	0.046326
 220.94700	2.859026	0.047623
 222.16700	2.867216	0.048980
 223.38800	2.875636	0.050400
 224.60900	2.884295	0.051887
 225.82900	2.893206	0.053446
 227.05000	2.902379	0.055082
 228.27100	2.911829	0.056801
 229.49200	2.921567	0.058608
 230.71200	2.931609	0.060510
 231.93300	2.941971	0.062514
 233.15400	2.952668	0.064628
 234.37400	2.963719	0.066861
 235.59500	2.975143	0.069222
 236.81600	2.986962	0.071722
 238.03600	2.999196	0.074372
 239.25700	3.011871	0.077185
 240.47800	3.025012	0.080175
 241.69900	3.038648	0.083359
 242.91900	3.052809	0.086754
 244.14000	3.067528	0.090380
 245.36100	3.082842	0.094259
 246.58100	3.098791	0.098417
 247.80200	3.115416	0.102882
 249.02300	3.132766	0.107685
 250.24300	3.150892	0.112864
 251.46400	3.169849	0.118458
 252.68500	3.189702	0.124517
 253.90600	3.210516	0.131092
 255.12600	3.232368	0.138249
 256.34700	3.255342	0.146056
 257.56800	3.279527	0.154599
 258.78800	3.305029	0.163975
 260.00900	3.331958	0.174297
 261.23000	3.360440	0.185699
 262.45000	3.390612	0.198339
 263.67100	3.422631	0.212404
 264.89200	3.456668	0.228120
 266.11300	3.492909	0.245754
 267.33300	3.531565	0.265634
 268.55400	3.572861	0.288153
 269.77500	3.617047	0.313799
 270.99500	3.664386	0.343169
 272.21600	3.704667	0.395535
 273.43700	3.746172	0.452775
 274.65700	3.793262	0.515475
 275.87800	3.844500	0.586481
 277.09900	3.894079	0.670234
 278.32000	3.958441	0.762187
 279.54000	4.005974	0.877206
 280.76100	4.070860	1.009131
 281.98200	4.119001	1.166429
 283.20200	4.158687	1.355595
 284.42300	4.195403	1.578281
 285.64400	4.157860	1.843235
 286.86400	4.098659	2.152882
 288.08500	3.904513	2.444772
 289.30600	3.641534	2.715284
 290.52700	3.315368	2.908197
 291.74700	2.923640	2.986047
 292.96800	2.578418	3.002988
 294.18900	2.254979	2.885948
 295.40900	2.010214	2.770550
 296.63000	1.809754	2.626552
 297.85100	1.642988	2.481346
 299.07100	1.506940	2.364641
 300.29200	1.359064	2.209193
 301.51300	1.246376	2.072165
 302.73400	1.150626	1.897921
 303.95400	1.083545	1.729886
 305.17500	1.051037	1.568922
 306.39600	1.037156	1.395923
 307.61600	1.054623	1.248268
 308.83700	1.082843	1.096812
 310.05800	1.136045	0.967789
 311.27800	1.199415	0.850511
 312.49900	1.275204	0.749802
 313.72000	1.360482	0.674040
 314.94100	1.433615	0.613834
 316.16100	1.512163	0.567228
 317.38200	1.578485	0.528669
 318.60300	1.647860	0.497195
 319.82300	1.713286	0.473399
 321.04400	1.770187	0.455850
 322.26500	1.836990	0.441366
 323.48500	1.879998	0.436523
 324.70600	1.937240	0.428100
 325.92700	1.982854	0.427310
 327.14800	2.026625	0.428155
 328.36800	2.076887	0.426937
 329.58900	2.107623	0.438240
 330.81000	2.160050	0.441419
 332.03000	2.185136	0.458062
 333.25100	2.218713	0.465642
 334.47200	2.252160	0.472801
 335.69200	2.276349	0.488911
 336.91300	2.321661	0.495825
 338.13400	2.330573	0.522897
 339.35500	2.361786	0.533522
 340.57500	2.378197	0.551090
 341.79600	2.393573	0.568321
 343.01700	2.420133	0.577000
 344.23700	2.419657	0.597404
 345.45800	2.458838	0.603345
 346.67900	2.462449	0.626366
 347.89900	2.481032	0.639114
 349.12000	2.500066	0.650822
 350.34100	2.505139	0.672026
 351.56200	2.543442	0.679261
 352.78200	2.537663	0.710277
 354.00300	2.565620	0.727702
 355.22400	2.570940	0.754964
 356.44400	2.573902	0.783363
 357.66500	2.592330	0.803988
 358.88600	2.566819	0.842265
 360.10600	2.584253	0.858407
 361.32700	2.555490	0.886277
 362.54800	2.540968	0.900504
 363.76900	2.524821	0.903256
 364.98900	2.492809	0.901592
 366.21000	2.511647	0.881744
 367.43100	2.488267	0.882986
 368.65100	2.502845	0.870201
 369.87200	2.500547	0.861053
 371.09300	2.502594	0.849167
 372.31300	2.529025	0.829948
 373.53400	2.520962	0.824025
 374.75500	2.572664	0.799813
 375.97600	2.589213	0.799180
 377.19600	2.630035	0.795033
 378.41700	2.668787	0.798572
 379.63800	2.682495	0.815004
 380.85800	2.735307	0.803696
 382.07900	2.748119	0.816474
 383.30000	2.810821	0.818122
 384.52000	2.846559	0.834487
 385.74100	2.887471	0.850489
 386.96200	2.960076	0.858233
 388.18300	2.981358	0.900530
 389.40300	3.081952	0.917556
 390.62400	3.113205	0.973937
 391.84500	3.185396	1.014834
 393.06500	3.257877	1.068368
 394.28600	3.294581	1.155043
 395.50700	3.394796	1.201120
 396.72700	3.426457	1.303454
 397.94800	3.541427	1.420852
 399.16900	3.573181	1.572423
 400.39000	3.589535	1.741491
 401.61000	3.636136	1.906552
 402.83100	3.524731	2.111141
 404.05200	3.497234	2.281390
 405.27200	3.326869	2.377849
 406.49300	3.244413	2.439638
 407.71400	3.218133	2.480655
 408.93400	3.188704	2.543961
 410.15500	3.313309	2.715540
 411.37600	3.197275	2.955173
 412.59700	3.088673	3.284209
 413.81700	2.795823	3.498559
 415.03800	2.412080	3.624536
 416.25900	2.091737	3.670952
 417.47900	1.739072	3.504622
 418.70000	1.553587	3.441132
 419.92100	1.371979	3.274112
 421.14100	1.231518	3.157370
 422.36200	1.118889	3.053886
 423.58300	1.004457	2.904169
 424.80400	0.920690	2.842093
 426.02400	0.836280	2.680153
 427.24500	0.776389	2.592237
 428.46600	0.723510	2.479891
 429.68600	0.676587	2.366896
 430.90700	0.640175	2.290731
 432.12800	0.603757	2.161332
 433.34800	0.577352	2.100338
 434.56900	0.551372	1.993116
 435.79000	0.531201	1.906698
 437.01100	0.514632	1.825100
 438.23100	0.498976	1.721735
 439.45200	0.488907	1.655250
 440.67300	0.479784	1.545458
 441.89300	0.478390	1.464516
 443.11400	0.478723	1.370076
 444.33500	0.483652	1.269078
 445.55500	0.496445	1.176728
 446.77600	0.517366	1.056238
 447.99700	0.557717	0.958229
 449.21800	0.609605	0.842321
 450.43800	0.687532	0.735083
 451.65900	0.787197	0.643930
 452.88000	0.901734	0.570366
 454.10000	1.027743	0.533284
 455.32100	1.132799	0.514123
 456.54200	1.240107	0.504068
 457.76200	1.341482	0.500952
 458.98300	1.447669	0.508857
 460.20400	1.558151	0.533664
 461.42500	1.642475	0.578111
 462.64500	1.743421	0.624430
 463.86600	1.816882	0.688276
 465.08700	1.899476	0.765621
 466.30700	1.962209	0.853983
 467.52800	1.994911	0.952385
 468.74900	2.070052	1.050379
 469.96900	2.057520	1.199039
 471.19000	2.038755	1.362989
 472.41100	1.925058	1.487569
 473.63200	1.772271	1.561935
 474.85200	1.650868	1.574538
 476.07300	1.502418	1.526040
 477.29400	1.436440	1.466760
 478.51400	1.371308	1.361992
 479.73500	1.363373	1.256485
 480.95600	1.398208	1.161884
 482.17600	1.451430	1.077372
 483.39700	1.558133	1.032188
 484.61800	1.638675	1.010776
 485.83900	1.764119	1.026026
 487.05900	1.855723	1.072641
 488.28000	1.940639	1.140057
 489.50100	2.035827	1.222946
 490.72100	2.063031	1.328883
 491.94200	2.148462	1.454916
 493.16300	2.139785	1.592284
 494.38300	2.141192	1.754213
 495.60400	2.102307	1.904669
 496.82500	1.988886	2.036064
 498.04600	1.945525	2.190885
 499.26600	1.752610	2.254830
 500.48700	1.633435	2.345628
 501.70800	1.483903	2.369960
 502.92800	1.329987	2.377604
 504.14900	1.220079	2.403553
 505.37000	1.061112	2.332879
 506.59000	0.973525	2.349602
 507.81100	0.857212	2.278461
 509.03200	0.758568	2.235856
 510.25300	0.675471	2.187822
 511.47300	0.588356	2.092723
 512.69400	0.529154	2.066400
 513.91500	0.472421	1.950823
 515.13500	0.434774	1.904264
 516.35600	0.401636	1.833376
 517.57700	0.372022	1.762734
 518.79700	0.350005	1.726945
 520.01800	0.326438	1.636916
 521.23900	0.310395	1.617450
 522.46000	0.293576	1.548352
 523.68000	0.280796	1.503587
 524.90100	0.270750	1.463692
 526.12200	0.260525	1.401526
 527.34200	0.252417	1.386389
 528.56300	0.243769	1.318200
 529.78400	0.237918	1.292228
 531.00400	0.232896	1.248794
 532.22500	0.228527	1.205316
 533.44600	0.224758	1.183818
 534.66700	0.220629	1.123807
 535.88700	0.218733	1.112581
 537.10800	0.215040	1.066228
 538.32900	0.212030	1.036287
 539.54900	0.209679	1.007556
 540.77000	0.208001	0.960947
 541.99100	0.208280	0.949529
 543.21100	0.206646	0.898726
 544.43200	0.205930	0.879599
 545.65300	0.204174	0.845733
 546.87400	0.202125	0.809975
 548.09400	0.200645	0.789277
 549.31500	0.200288	0.736413
 550.53600	0.202960	0.722489
 551.75600	0.204523	0.680419
 552.97700	0.207008	0.652056
 554.19800	0.208862	0.624778
 555.41800	0.210307	0.581344
 556.63900	0.213648	0.564892
 557.86000	0.217205	0.514681
 559.08100	0.221404	0.490593
 560.30100	0.230142	0.470671
 561.52200	0.242965	0.447930
 562.74300	0.258383	0.437314
 563.96300	0.274457	0.406185
 565.18400	0.292982	0.396180
 566.40500	0.313727	0.368385
 567.62500	0.339896	0.347302
 568.84600	0.369391	0.326958
 570.06700	0.403464	0.304510
 571.28800	0.440810	0.291533
 572.50800	0.481118	0.277023
 573.72900	0.522432	0.270804
 574.95000	0.555756	0.247844
 576.17000	0.588328	0.228062
 577.39100	0.619842	0.210974
 578.61200	0.650140	0.196136
 579.83200	0.679167	0.183171
 581.05300	0.706930	0.171763
 582.27400	0.733473	0.161658
 583.49500	0.758853	0.152649
 584.71500	0.783138	0.144568
 585.93600	0.806393	0.137280
 587.15700	0.828694	0.130672
 588.37700	0.850099	0.124654
 589.59800	0.870669	0.119149
 590.81900	0.890460	0.114093
 592.03900	0.909524	0.109435
 593.26000	0.927909	0.105128
 594.48100	0.945656	0.101134
 595.70200	0.962806	0.097421
 596.92200	0.979394	0.093960
 598.14300	0.995457	0.090725
 599.36400	1.011023	0.087697
 600.58400	1.026122	0.084855
 601.80500	1.040780	0.082183
 603.02600	1.055021	0.079668
 604.24600	1.068868	0.077295
 605.46700	1.082341	0.075054
 606.68800	1.095459	0.072933
 607.90900	1.108240	0.070925
 609.12900	1.120702	0.069020
 610.35000	1.132860	0.067211
 611.57100	1.144728	0.065491
 612.79100	1.156321	0.063855
 614.01200	1.167650	0.062296
 615.23300	1.178728	0.060809
 616.45300	1.189566	0.059391
 617.67400	1.200174	0.058036
 618.89500	1.210564	0.056741
 620.11600	1.220744	0.055502
 621.33600	1.230722	0.054316
 622.55700	1.240508	0.053180
 623.77800	1.250110	0.052090
 624.99800	1.259534	0.051046
 626.21900	1.268788	0.050043
 627.44000	1.277880	0.049080
 628.66000	1.286813	0.048156
 629.88100	1.295596	0.047267
 631.10200	1.304235	0.046412
 632.32300	1.312734	0.045589
 633.54300	1.321099	0.044797
 634.76400	1.329336	0.044035
 635.98500	1.337448	0.043301
 637.20500	1.345441	0.042594
 638.42600	1.353318	0.041912
 639.64700	1.361085	0.041254
 640.86700	1.368745	0.040620
 642.08800	1.376302	0.040009
 643.30900	1.383760	0.039418
 644.53000	1.391123	0.038849
 645.75000	1.398394	0.038299
 646.97100	1.405576	0.037768
 648.19200	1.412672	0.037256
 649.41200	1.419686	0.036761
 650.63300	1.426620	0.036282
 651.85400	1.433478	0.035821
 653.07400	1.440263	0.035375
 654.29500	1.446976	0.034944
 655.51600	1.453620	0.034527
 656.73700	1.460199	0.034125
 657.95700	1.466714	0.033737
 659.17800	1.473168	0.033361
 660.39900	1.479563	0.032999
 661.61900	1.485901	0.032648
 662.84000	1.492185	0.032310
 664.06100	1.498416	0.031984
 665.28100	1.504598	0.031668
 666.50200	1.510730	0.031364
 667.72300	1.516817	0.031071
 668.94400	1.522859	0.030787
 670.16400	1.528857	0.030514
 671.38500	1.534815	0.030251
 672.60600	1.540735	0.029997
 673.82600	1.546616	0.029753
 675.04700	1.552462	0.029518
 676.26800	1.558274	0.029291
 677.48800	1.564054	0.029074
 678.70900	1.569803	0.028865
 679.93000	1.575522	0.028664
 681.15100	1.581214	0.028471
 682.37100	1.586879	0.028286
 683.59200	1.592520	0.028110
 684.81300	1.598137	0.027941
 686.03300	1.603733	0.027779
 687.25400	1.609308	0.027625
 688.47500	1.614864	0.027478
 689.69500	1.620403	0.027339
 690.91600	1.625926	0.027206
 692.13700	1.631432	0.027081
 693.35800	1.636926	0.026962
 694.57800	1.642408	0.026850
 695.79900	1.647878	0.026745
 697.02000	1.653340	0.026647
 698.24000	1.658792	0.026555
 699.46100	1.664238	0.026470
 700.68200	1.669679	0.026391
 701.90200	1.675114	0.026319
 703.12300	1.680547	0.026253
 704.34400	1.685978	0.026193
 705.56500	1.691408	0.026140
 706.78500	1.696839	0.026093
 708.00600	1.702273	0.026053
 709.22700	1.707709	0.026019
 710.44700	1.713151	0.025990
 711.66800	1.718598	0.025969
 712.88900	1.724052	0.025953
 714.10900	1.729515	0.025944
 715.33000	1.734987	0.025941
 716.55100	1.740471	0.025944
 717.77200	1.745968	0.025954
 718.99200	1.751478	0.025970
 720.21300	1.757004	0.025992
 721.43400	1.762546	0.026021
 722.65400	1.768106	0.026057
 723.87500	1.773685	0.026098
 725.09600	1.779286	0.026147
 726.31600	1.784908	0.026202
 727.53700	1.790554	0.026264
 728.75800	1.796226	0.026332
 729.97900	1.801924	0.026408
 731.19900	1.807651	0.026490
 732.42000	1.813407	0.026580
 733.64100	1.819194	0.026677
 734.86100	1.825015	0.026781
 736.08200	1.830870	0.026892
 737.30300	1.836762	0.027011
 738.52300	1.842692	0.027138
 739.74400	1.848661	0.027273
 740.96500	1.854672	0.027415
 742.18600	1.860727	0.027566
 743.40600	1.866827	0.027725
 744.62700	1.872974	0.027893
 745.84800	1.879170	0.028069
 747.06800	1.885417	0.028254
 748.28900	1.891718	0.028448
 749.51000	1.898075	0.028652
 750.73000	1.904488	0.028865
 751.95100	1.910962	0.029088
 753.17200	1.917498	0.029321
 754.39300	1.924098	0.029565
 755.61300	1.930766	0.029819
 756.83400	1.937503	0.030084
 758.05500	1.944312	0.030361
 759.27500	1.951196	0.030649
 760.49600	1.958158	0.030950
 761.71700	1.965200	0.031262
 762.93700	1.972325	0.031588
 764.15800	1.979538	0.031927
 765.37900	1.986839	0.032280
 766.60000	1.994233	0.032646
 767.82000	2.001725	0.033028
 769.04100	2.009316	0.033425
 770.26200	2.017010	0.033837
 771.48200	2.024812	0.034266
 772.70300	2.032726	0.034712
 773.92400	2.040755	0.035176
 775.14400	2.048904	0.035658
 776.36500	2.057176	0.036159
 777.58600	2.065577	0.036680
 778.80700	2.074112	0.037222
 780.02700	2.082787	0.037785
 781.24800	2.091604	0.038371
 782.46900	2.100571	0.038980
 783.68900	2.109693	0.039614
 784.91000	2.118976	0.040274
 786.13100	2.128426	0.040960
 787.35100	2.138050	0.041675
 788.57200	2.147854	0.042419
 789.79300	2.157847	0.043194
 791.01400	2.168034	0.044001
 792.23400	2.178425	0.044842
 793.45500	2.189028	0.045719
 794.67600	2.199850	0.046633
 795.89600	2.210902	0.047587
 797.11700	2.222191	0.048583
