#SUBSTANCE=Low-Fe Olivine
#DESCRIPTION=Refractive index of low-Fe olivine (Mg<sub>1.9</sub>Fe<sub>0.1</sub>SiO<sub>4</sub>) (E||x)
#REFERENCE=Zeidler, S., Posch, T., Mutschke, H., Richter, H. and Wehrhan, O., 2011. Near-infrared absorption properties of oxygen-rich stardust analogs-The influence of coloring metal ions. Astronomy & Astrophysics, 526, p.A68.
#DOI=10.1051/0004-6361/201015219
#FORMAT=WAVN N K
1.221	2.626558	0.000082
2.441	2.626581	0.000165
3.662	2.62662	0.000247
4.883	2.626676	0.00033
6.103	2.626746	0.000412
7.324	2.626833	0.000495
8.545	2.626935	0.000578
9.766	2.627053	0.00066
10.986	2.627187	0.000743
12.207	2.627337	0.000826
13.428	2.627502	0.000909
14.648	2.627683	0.000992
15.869	2.627881	0.001076
17.09	2.628094	0.001159
18.31	2.628323	0.001243
19.531	2.628568	0.001326
20.752	2.628829	0.00141
21.973	2.629106	0.001494
23.193	2.629399	0.001579
24.414	2.629708	0.001663
25.635	2.630033	0.001748
26.855	2.630375	0.001833
28.076	2.630733	0.001919
29.297	2.631107	0.002004
30.517	2.631497	0.00209
31.738	2.631904	0.002176
32.959	2.632327	0.002262
34.18	2.632767	0.002349
35.4	2.633223	0.002436
36.621	2.633696	0.002524
37.842	2.634186	0.002611
39.062	2.634692	0.002699
40.283	2.635216	0.002788
41.504	2.635756	0.002877
42.724	2.636313	0.002966
43.945	2.636887	0.003056
45.166	2.637479	0.003146
46.387	2.638087	0.003237
47.607	2.638713	0.003328
48.828	2.639357	0.003419
50.049	2.640018	0.003511
51.269	2.640696	0.003604
52.49	2.641392	0.003697
53.711	2.642107	0.003791
54.931	2.642838	0.003885
56.152	2.643589	0.00398
57.373	2.644356	0.004075
58.594	2.645143	0.004171
59.814	2.645948	0.004268
61.035	2.646771	0.004366
62.256	2.647613	0.004464
63.476	2.648474	0.004563
64.697	2.649353	0.004662
65.918	2.650252	0.004762
67.138	2.65117	0.004863
68.359	2.652107	0.004965
69.58	2.653064	0.005068
70.801	2.65404	0.005171
72.021	2.655036	0.005276
73.242	2.656052	0.005381
74.463	2.657088	0.005487
75.683	2.658144	0.005594
76.904	2.659221	0.005702
78.125	2.660319	0.005811
79.345	2.661438	0.005921
80.566	2.662577	0.006032
81.787	2.663738	0.006145
83.008	2.66492	0.006258
84.228	2.666123	0.006372
85.449	2.667349	0.006488
86.67	2.668597	0.006605
87.89	2.669867	0.006723
89.111	2.67116	0.006843
90.332	2.672476	0.006963
91.552	2.673814	0.007086
92.773	2.675176	0.007209
93.994	2.676562	0.007334
95.215	2.677971	0.007461
96.435	2.679405	0.007589
97.656	2.680863	0.007719
98.877	2.682346	0.00785
100.097	2.683854	0.007983
101.318	2.685387	0.008118
102.539	2.686946	0.008255
103.759	2.688531	0.008394
104.98	2.690142	0.008534
106.201	2.691781	0.008677
107.422	2.693446	0.008822
108.642	2.695139	0.008969
109.863	2.69686	0.009118
111.084	2.698609	0.00927
112.304	2.700387	0.009423
113.525	2.702194	0.00958
114.746	2.704031	0.009739
115.966	2.705899	0.009901
117.187	2.707797	0.010066
118.408	2.709725	0.010234
119.629	2.711686	0.010405
120.849	2.713679	0.010579
122.07	2.715705	0.010756
123.291	2.717764	0.010937
124.511	2.719858	0.011122
125.732	2.721986	0.011311
126.953	2.72415	0.011503
128.173	2.72635	0.0117
129.394	2.728587	0.011901
130.615	2.730861	0.012107
131.836	2.733174	0.012318
133.056	2.735527	0.012534
134.277	2.737919	0.012756
135.498	2.740353	0.012983
136.718	2.742829	0.013217
137.939	2.745348	0.013457
139.16	2.747912	0.013703
140.38	2.750521	0.013958
141.601	2.753177	0.01422
142.822	2.755881	0.01449
144.043	2.758634	0.014769
145.263	2.761438	0.015058
146.484	2.764295	0.015357
147.705	2.767206	0.015666
148.925	2.770172	0.015988
150.146	2.773197	0.016322
151.367	2.776281	0.016671
152.587	2.779427	0.017034
153.808	2.782637	0.017413
155.029	2.785914	0.01781
156.25	2.789261	0.018227
157.47	2.79268	0.018665
158.691	2.796174	0.019126
159.912	2.799748	0.019613
161.132	2.803403	0.020129
162.353	2.807146	0.020677
163.574	2.81098	0.02126
164.794	2.814909	0.021883
166.015	2.818939	0.02255
167.236	2.823076	0.023268
168.457	2.827327	0.024043
169.677	2.831697	0.024883
170.898	2.836194	0.025798
172.119	2.840828	0.026799
173.339	2.845605	0.0279
174.56	2.850537	0.029116
175.781	2.855634	0.030467
177.001	2.860905	0.031977
178.222	2.866364	0.033677
179.443	2.872021	0.035601
180.664	2.877887	0.037795
181.884	2.883969	0.040315
183.105	2.890272	0.043232
184.326	2.896793	0.046633
185.546	2.903515	0.05063
186.767	2.910398	0.055362
187.988	2.917368	0.061
189.208	2.924289	0.067751
190.429	2.930933	0.075854
191.65	2.936929	0.08556
192.871	2.941704	0.097073
194.091	2.944419	0.110437
195.312	2.943974	0.125319
196.533	2.939163	0.140724
197.753	2.929149	0.154762
198.974	2.914202	0.16483
200.195	2.896276	0.168516
201.415	2.878631	0.164888
202.636	2.864438	0.155088
203.857	2.855468	0.141617
205.078	2.851837	0.127033
206.298	2.852631	0.113134
207.519	2.856641	0.100829
208.74	2.862786	0.090397
209.96	2.87026	0.081771
211.181	2.878516	0.074735
212.402	2.887203	0.069039
213.622	2.896107	0.064447
214.843	2.905106	0.060757
216.064	2.91413	0.057802
217.285	2.923148	0.055448
218.505	2.932149	0.053588
219.726	2.941136	0.052139
220.947	2.950119	0.051033
222.167	2.95911	0.050219
223.388	2.968128	0.049655
224.609	2.977189	0.049309
225.829	2.986313	0.049155
227.05	2.995517	0.049174
228.271	3.00482	0.049349
229.492	3.014242	0.049671
230.712	3.0238	0.05013
231.933	3.033515	0.050721
233.154	3.043406	0.051442
234.374	3.053493	0.052293
235.595	3.063797	0.053273
236.816	3.074341	0.054389
238.036	3.085145	0.055645
239.257	3.096238	0.057051
240.478	3.107643	0.058617
241.699	3.119391	0.060358
242.919	3.131512	0.062291
244.14	3.14404	0.064439
245.361	3.157013	0.066827
246.581	3.170473	0.06949
247.802	3.184465	0.072466
249.023	3.199042	0.075806
250.243	3.214259	0.07957
251.464	3.23018	0.083836
252.685	3.246876	0.0887
253.906	3.264424	0.094282
255.126	3.282908	0.100739
256.347	3.302415	0.108271
257.568	3.323033	0.117137
258.788	3.344841	0.127678
260.009	3.367891	0.140348
261.23	3.392169	0.155741
262.45	3.417537	0.174652
263.671	3.443622	0.198116
264.892	3.469608	0.227448
266.113	3.493897	0.264176
267.333	3.513611	0.30975
268.554	3.524015	0.364659
269.775	3.518473	0.426595
270.995	3.490356	0.487845
272.216	3.438369	0.534476
273.437	3.372541	0.551944
274.657	3.312245	0.535897
275.878	3.274332	0.496248
277.099	3.26422	0.449016
278.32	3.277963	0.406667
279.54	3.308729	0.375466
280.761	3.350774	0.357557
281.982	3.400343	0.35357
283.202	3.455164	0.36433
284.423	3.513507	0.391842
285.644	3.572934	0.43995
286.864	3.628245	0.514657
288.085	3.667852	0.623133
289.306	3.66872	0.768125
290.527	3.596372	0.93245
291.747	3.429259	1.060729
292.968	3.205508	1.08296
294.189	3.012894	0.987475
295.409	2.907754	0.832178
296.63	2.88467	0.679196
297.851	2.912086	0.557003
299.071	2.96347	0.468558
300.292	3.023911	0.407824
301.513	3.086533	0.368181
302.734	3.14859	0.344776
303.954	3.209131	0.334707
305.175	3.267743	0.336742
306.396	3.323734	0.35106
307.616	3.37526	0.379004
308.837	3.418115	0.422471
310.058	3.444168	0.481985
311.278	3.441123	0.552004
312.499	3.398581	0.6144
313.72	3.323384	0.640895
314.941	3.246437	0.615516
316.161	3.199434	0.552293
317.382	3.190699	0.478905
318.603	3.210584	0.413826
319.823	3.246685	0.362833
321.044	3.290425	0.325112
322.265	3.337139	0.297978
323.485	3.384599	0.278837
324.706	3.431877	0.26566
325.927	3.478682	0.25698
327.148	3.525034	0.251762
328.368	3.57108	0.249287
329.589	3.617025	0.249053
330.81	3.663084	0.250719
332.03	3.709488	0.25405
333.251	3.756453	0.258898
334.472	3.804197	0.265174
335.692	3.852931	0.272839
336.913	3.902861	0.281894
338.134	3.954208	0.292379
339.355	4.007187	0.304366
340.575	4.062026	0.317962
341.796	4.118955	0.333307
343.017	4.178234	0.350584
344.237	4.240129	0.370019
345.458	4.304931	0.39189
346.679	4.372945	0.416536
347.899	4.444519	0.444377
349.12	4.520013	0.475922
350.341	4.599825	0.511801
351.562	4.684375	0.55279
352.782	4.774094	0.599848
354.003	4.869441	0.654186
355.224	4.970837	0.717314
356.444	5.078644	0.791147
357.665	5.193061	0.878098
358.886	5.314027	0.981263
360.106	5.440936	1.10455
361.327	5.572277	1.25289
362.548	5.704976	1.432324
363.769	5.833454	1.650025
364.989	5.948123	1.913646
366.21	6.033611	2.229705
367.431	6.067239	2.599952
368.651	6.019765	3.015247
369.872	5.861699	3.448297
371.093	5.577208	3.851497
372.313	5.179607	4.168014
373.534	4.713889	4.354856
374.755	4.23908	4.400699
375.976	3.8052	4.323705
377.196	3.441823	4.155947
378.417	3.160552	3.929355
379.638	2.96256	3.669499
380.858	2.845145	3.395647
382.079	2.805005	3.123224
383.3	2.838789	2.866615
384.52	2.941736	2.640555
385.741	3.105945	2.459683
386.962	3.320207	2.336521
388.183	3.571841	2.280382
389.403	3.848588	2.298609
390.624	4.138605	2.399294
391.845	4.42747	2.593564
393.065	4.692732	2.895642
394.286	4.896303	3.317761
395.507	4.979016	3.855672
396.727	4.87034	4.46312
397.948	4.53018	5.036991
399.169	4.00088	5.45557
400.39	3.358008	5.628028
401.61	2.761641	5.604742
402.831	2.263942	5.4555
404.052	1.872136	5.247523
405.272	1.567807	5.016913
406.493	1.331489	4.787415
407.714	1.14621	4.568016
408.934	0.998468	4.360198
410.155	0.879105	4.169809
411.376	0.782127	3.988358
412.597	0.701971	3.823205
413.817	0.634775	3.667462
415.038	0.578238	3.521025
416.259	0.531049	3.385794
417.479	0.491575	3.255346
418.7	0.457137	3.138469
419.921	0.427604	3.023883
421.141	0.401803	2.917173
422.362	0.379355	2.816098
423.583	0.359998	2.717404
424.804	0.342545	2.628232
426.024	0.327156	2.537198
427.245	0.313393	2.454164
428.466	0.300963	2.372231
429.686	0.28955	2.292438
430.907	0.279235	2.217057
432.128	0.271107	2.139323
433.348	0.262059	2.068888
434.569	0.256921	1.993745
435.79	0.254302	1.924125
437.011	0.252408	1.858044
438.231	0.250209	1.790959
439.452	0.248598	1.730123
440.673	0.246941	1.664703
441.893	0.245001	1.604432
443.114	0.243337	1.541536
444.335	0.242276	1.477965
445.555	0.241745	1.416561
446.776	0.241511	1.348241
447.997	0.243922	1.28418
449.218	0.247731	1.213092
450.438	0.255666	1.141102
451.659	0.268406	1.067373
452.88	0.286295	0.989939
454.1	0.310646	0.915344
455.321	0.340911	0.834639
456.542	0.381598	0.7548
457.762	0.436367	0.673175
458.983	0.510136	0.59862
460.204	0.600986	0.551921
461.425	0.694311	0.523147
462.645	0.790499	0.518151
463.866	0.875058	0.533735
465.087	0.941848	0.561952
466.307	0.990726	0.592318
467.528	1.024891	0.618242
468.749	1.050192	0.641308
469.969	1.062351	0.640276
471.19	1.099154	0.630819
472.411	1.14056	0.639572
473.632	1.164444	0.654182
474.852	1.169907	0.648292
476.073	1.19838	0.601502
477.294	1.281501	0.57562
478.514	1.36543	0.580085
479.735	1.448551	0.600409
480.956	1.530533	0.634154
482.176	1.609943	0.684713
483.397	1.683463	0.756635
484.618	1.724132	0.826864
485.839	1.787788	0.898314
487.059	1.839836	0.997843
488.28	1.872017	1.115173
489.501	1.883455	1.233204
490.721	1.869901	1.352631
491.942	1.855951	1.476334
493.163	1.802778	1.611625
494.383	1.730756	1.766725
495.604	1.627647	1.89518
496.825	1.500731	1.990911
498.046	1.374069	2.064169
499.266	1.234915	2.086876
500.487	1.114853	2.092578
501.708	1.006784	2.073903
502.928	0.915312	2.041641
504.149	0.843818	2.00546
505.37	0.783117	1.963252
506.59	0.736689	1.926382
507.811	0.69604	1.887898
509.032	0.660937	1.851806
510.253	0.630067	1.816299
511.473	0.602584	1.78065
512.694	0.578216	1.745543
513.915	0.549873	1.68796
515.135	0.52538	1.631251
516.356	0.504301	1.575409
517.577	0.486275	1.520385
518.797	0.47101	1.466108
520.018	0.458274	1.412488
521.239	0.447889	1.35943
522.46	0.439726	1.306827
523.68	0.433705	1.254577
524.901	0.429785	1.202566
526.122	0.427976	1.150698
527.342	0.428331	1.098884
528.563	0.430954	1.047052
529.784	0.436	0.995157
531.004	0.443681	0.943202
532.225	0.454261	0.891249
533.446	0.468048	0.839459
534.667	0.485384	0.788102
535.887	0.501481	0.691615
537.108	0.529758	0.600848
538.329	0.570708	0.522136
539.549	0.620787	0.461343
540.77	0.673037	0.421926
541.991	0.719938	0.411522
543.211	0.734724	0.425705
544.432	0.743551	0.437986
545.653	0.740045	0.443476
546.874	0.728076	0.437724
548.094	0.715438	0.416885
549.315	0.708166	0.378903
550.536	0.71882	0.333918
551.756	0.745685	0.286898
552.977	0.784519	0.251125
554.198	0.828421	0.22457
555.418	0.875356	0.204485
556.639	0.929773	0.200533
557.86	0.963336	0.213649
559.081	0.985222	0.216944
560.301	1.005805	0.212779
561.522	1.030327	0.204065
562.743	1.060351	0.195087
563.963	1.094953	0.1918
565.184	1.123551	0.196525
566.405	1.145794	0.194506
567.625	1.173911	0.188543
568.846	1.205122	0.185203
570.067	1.233823	0.184656
571.288	1.262668	0.172369
572.508	1.315453	0.167258
573.729	1.359311	0.185093
574.95	1.38675	0.193418
576.17	1.421866	0.18725
577.391	1.481586	0.18307
578.612	1.541448	0.211932
579.832	1.58507	0.23325
581.053	1.632133	0.255713
582.274	1.687437	0.278334
583.495	1.747203	0.306882
584.715	1.811543	0.345613
585.936	1.893901	0.389909
587.157	1.955712	0.478328
588.377	2.019438	0.577976
589.598	2.072172	0.64419
590.819	2.125708	0.773239
592.039	2.178154	0.877853
593.26	2.190761	1.003197
594.481	2.165042	1.151444
595.702	2.053447	1.322504
596.922	1.924499	1.511763
598.143	1.764526	1.707944
599.364	1.559733	1.892926
600.584	1.387049	2.046046
601.805	1.198292	2.151692
603.026	1.059092	2.204995
604.246	0.938205	2.211453
605.467	0.83888	2.182103
606.688	0.767299	2.1286
607.909	0.676691	2.06056
609.129	0.621137	1.98487
610.35	0.590774	1.906077
611.571	0.563722	1.826983
612.791	0.537565	1.749216
614.012	0.5103	1.673646
615.233	0.491436	1.600681
616.453	0.471637	1.530439
617.674	0.455607	1.462879
618.895	0.440882	1.397844
620.116	0.428787	1.335154
621.336	0.408895	1.27459
622.557	0.392086	1.215931
623.778	0.377991	1.158954
624.998	0.366324	1.103445
626.219	0.356868	1.049196
627.44	0.349472	0.99601
628.66	0.344039	0.943713
629.881	0.340525	0.89212
631.102	0.338941	0.841082
632.323	0.339352	0.790467
633.543	0.341883	0.740172
634.764	0.346723	0.690146
635.985	0.354121	0.640405
637.205	0.364384	0.591075
638.426	0.377839	0.542435
639.647	0.394779	0.494948
640.867	0.415347	0.449286
642.088	0.439417	0.406251
643.309	0.466513	0.366625
644.53	0.495851	0.330972
645.75	0.526505	0.299504
646.971	0.5576	0.272095
648.192	0.588447	0.248382
649.412	0.618569	0.227899
650.633	0.647686	0.210166
651.854	0.675648	0.194747
653.074	0.702403	0.181266
654.295	0.727957	0.169408
655.516	0.752346	0.158916
656.737	0.775626	0.149577
657.957	0.797862	0.141219
659.178	0.819119	0.1337
660.399	0.83946	0.126905
661.619	0.858951	0.120736
662.84	0.87765	0.115112
664.061	0.89561	0.109967
665.281	0.912882	0.105244
666.502	0.929513	0.100893
667.723	0.945545	0.096874
668.944	0.961017	0.093151
670.164	0.975964	0.089694
671.385	0.99042	0.086476
672.606	1.004416	0.083473
673.826	1.017979	0.080667
675.047	1.031134	0.078038
676.268	1.043905	0.075571
677.488	1.056315	0.073252
678.709	1.068382	0.071069
679.93	1.080126	0.069011
681.151	1.091563	0.067067
682.371	1.102712	0.065229
683.592	1.113585	0.06349
684.813	1.124197	0.061841
686.033	1.13456	0.060276
687.254	1.144688	0.058789
688.475	1.154592	0.057375
689.695	1.164281	0.05603
690.916	1.173766	0.054747
692.137	1.183056	0.053525
693.358	1.19216	0.052358
694.578	1.201087	0.051243
695.799	1.209844	0.050178
697.02	1.218439	0.049158
698.24	1.226878	0.048183
699.461	1.235168	0.047248
700.682	1.243315	0.046352
701.902	1.251325	0.045493
703.123	1.259204	0.044669
704.344	1.266958	0.043877
705.565	1.27459	0.043117
706.785	1.282106	0.042386
708.006	1.289511	0.041684
709.227	1.296809	0.041008
710.447	1.304003	0.040358
711.668	1.3111	0.039732
712.889	1.318099	0.03913
714.109	1.325008	0.038549
715.33	1.331828	0.03799
716.551	1.338564	0.03745
717.772	1.345219	0.036931
718.992	1.351794	0.036429
720.213	1.358294	0.035946
721.434	1.364722	0.035479
722.654	1.371078	0.035029
723.875	1.377368	0.034595
725.096	1.383593	0.034176
726.316	1.389756	0.033771
727.537	1.395859	0.033381
728.758	1.401903	0.033004
729.979	1.407892	0.03264
731.199	1.413828	0.032288
732.42	1.419712	0.031949
733.641	1.425547	0.031622
734.861	1.431334	0.031306
736.082	1.437076	0.031001
737.303	1.442775	0.030706
738.523	1.448431	0.030422
739.744	1.454047	0.030149
740.965	1.459625	0.029885
742.186	1.465165	0.02963
743.406	1.470672	0.029384
744.627	1.476143	0.029148
745.848	1.481583	0.028921
747.068	1.486992	0.028701
748.289	1.492372	0.028491
749.51	1.497725	0.028288
750.73	1.503051	0.028094
751.951	1.508353	0.027907
753.172	1.513631	0.027728
754.393	1.518886	0.027556
755.613	1.524122	0.027392
756.834	1.529338	0.027234
758.055	1.534535	0.027084
759.275	1.539716	0.026941
760.496	1.544882	0.026805
761.717	1.550033	0.026675
762.937	1.555171	0.026552
764.158	1.560298	0.026436
765.379	1.565414	0.026326
766.6	1.570521	0.026223
767.82	1.575619	0.026126
769.041	1.580712	0.026036
770.262	1.585798	0.025951
771.482	1.590881	0.025873
772.703	1.59596	0.025801
773.924	1.601038	0.025736
775.144	1.606116	0.025676
776.365	1.611193	0.025623
777.586	1.616274	0.025576
778.807	1.621357	0.025535
780.027	1.626446	0.025501
781.248	1.63154	0.025473
782.469	1.636643	0.025451
783.689	1.641753	0.025436
784.91	1.646875	0.025427
786.131	1.652008	0.025424
787.351	1.657154	0.025429
788.572	1.662316	0.02544
789.793	1.667493	0.025458
791.014	1.67269	0.025484
792.234	1.677906	0.025516
793.455	1.683143	0.025557
794.676	1.688405	0.025605
795.896	1.693692	0.025661
797.117	1.699006	0.025725
798.338	1.70435	0.025799
799.558	1.709726	0.025881
800.779	1.715138	0.025974
802	1.720586	0.026076
803.221	1.726075	0.02619
804.441	1.731607	0.026315
805.662	1.737186	0.026453
806.883	1.742815	0.026604
808.103	1.748499	0.02677
809.324	1.754241	0.026953
810.545	1.760047	0.027154
811.765	1.765922	0.027374
812.986	1.771873	0.027618
814.207	1.777906	0.027887
815.428	1.78403	0.028186
816.648	1.790254	0.028519
817.869	1.796589	0.028892
819.09	1.803047	0.029312
820.31	1.809644	0.02979
821.531	1.816397	0.030338
822.752	1.823328	0.030973
823.972	1.830464	0.031716
825.193	1.837836	0.032599
826.414	1.845483	0.033664
827.635	1.853455	0.034971
828.855	1.861809	0.036609
830.076	1.870619	0.03871
831.297	1.879965	0.041476
832.517	1.889925	0.045226
833.738	1.900533	0.050476
834.959	1.911657	0.058068
836.179	1.922657	0.069339
837.4	1.931506	0.086106
838.621	1.933108	0.109343
839.842	1.91918	0.133877
841.062	1.889207	0.143398
842.283	1.862493	0.128763
843.504	1.853675	0.104181
844.724	1.858241	0.083309
845.945	1.868432	0.068858
847.166	1.880192	0.059356
848.386	1.892006	0.053101
849.607	1.903419	0.048918
850.828	1.914362	0.046075
852.049	1.924883	0.044124
853.269	1.935063	0.042784
854.49	1.944979	0.041877
855.711	1.954702	0.041285
856.931	1.964287	0.040928
858.152	1.973783	0.040754
859.373	1.983229	0.040724
860.593	1.992658	0.04081
861.814	2.002098	0.040993
863.035	2.011573	0.041258
864.256	2.021103	0.041596
865.476	2.030708	0.041997
866.697	2.040403	0.042456
867.918	2.050204	0.042968
869.138	2.060124	0.043531
870.359	2.070177	0.044142
871.58	2.080376	0.044801
872.8	2.090732	0.045506
874.021	2.101258	0.046256
875.242	2.111966	0.047053
876.463	2.122868	0.047897
877.683	2.133976	0.048788
878.904	2.145301	0.049728
880.125	2.151643	0.050719
881.345	2.158267	0.051762
882.566	2.165225	0.05286
883.787	2.17257	0.054015
885.007	2.179984	0.055229
886.228	2.186376	0.056507
887.449	2.193733	0.057851
888.67	2.202365	0.059264
889.89	2.210529	0.060753
891.111	2.218224	0.06232
892.332	2.226833	0.063971
893.552	2.237862	0.065711
894.773	2.250901	0.067548
895.994	2.264006	0.069486
897.214	2.275169	0.071534
898.435	2.284949	0.0737
899.656	2.294586	0.075993
900.877	2.303203	0.078422
902.097	2.319369	0.081
903.318	2.332628	0.083738
904.539	2.344508	0.086649
905.759	2.356247	0.08975
906.98	2.368096	0.093058
908.201	2.378379	0.096591
909.421	2.39736	0.100372
910.642	2.418797	0.104425
911.863	2.439521	0.108778
913.084	2.458063	0.113461
914.304	2.474905	0.118513
915.525	2.492807	0.123975
916.746	2.517841	0.129893
917.966	2.542628	0.136324
919.187	2.567278	0.143333
920.408	2.590152	0.150995
921.628	2.610934	0.159399
922.849	2.634068	0.16865
924.07	2.665297	0.178876
925.291	2.702207	0.190227
926.511	2.737027	0.202886
927.732	2.768579	0.217076
928.953	2.799415	0.233073
930.173	2.833055	0.251219
931.394	2.878521	0.271944
932.615	2.925115	0.295797
933.835	2.97326	0.323474
935.056	3.020012	0.3559
