# Material: Montmorillonite
# Reference:  Koike et al. MNRAS 246, 332 (1990)
#
# Name:        Montmorillonite
# Class:       Phyllosilicates
# State:       crystalline?
# Formula:     (Na,Ca)_{0.33}(Al,Mg)_{2}(Si_{4}O_{10})(OH)_{2}nH_{2}O
# ADS-link:    FIXME
# BibTeX-key:  FIXME
#
# Fields copied from the Oxford database
# sampleform = Pellet
# description = Refractive indices of montmorillonite
#
# The density is just the mean of tha range given on Wikipedia
#
# First line is N_lam and rho [g/cm^3], other lines are: lambda[um] n k
 2001  2.42
     0.100000      1.46585     0.168762
     0.100462      1.47119     0.168229
     0.100925      1.47654     0.167698
     0.101391      1.48191     0.167169
     0.101859      1.48731     0.166641
     0.102329      1.49272     0.166115
     0.102802      1.49815     0.165591
     0.103276      1.50313     0.164971
     0.103753      1.50735     0.164197
     0.104232      1.51158     0.163427
     0.104713      1.51583     0.162661
     0.105196      1.52009     0.161899
     0.105682      1.52435     0.161140
     0.106170      1.52864     0.160384
     0.106660      1.53293     0.159632
     0.107152      1.53724     0.158884
     0.107647      1.54155     0.158139
     0.108143      1.54588     0.157398
     0.108643      1.55023     0.156660
     0.109144      1.55458     0.155925
     0.109648      1.55895     0.155195
     0.110154      1.56332     0.154467
     0.110662      1.56772     0.153743
     0.111173      1.57212     0.153022
     0.111686      1.57653     0.152305
     0.112202      1.58096     0.151591
     0.112720      1.58360     0.150783
     0.113240      1.58403     0.149861
     0.113763      1.58447     0.148945
     0.114288      1.58491     0.148034
     0.114815      1.58535     0.147129
     0.115345      1.58579     0.146230
     0.115878      1.58622     0.145336
     0.116413      1.58666     0.144448
     0.116950      1.58710     0.143565
     0.117490      1.58754     0.142687
     0.118032      1.58798     0.141815
     0.118577      1.58842     0.140948
     0.119124      1.58886     0.140086
     0.119674      1.58929     0.139230
     0.120226      1.58973     0.138379
     0.120781      1.59017     0.137533
     0.121339      1.59061     0.136692
     0.121899      1.59105     0.135857
     0.122462      1.59149     0.135026
     0.123027      1.59193     0.134201
     0.123595      1.59237     0.133380
     0.124165      1.59250     0.135893
     0.124738      1.59250     0.139892
     0.125314      1.59927     0.142427
     0.125893      1.61178     0.143677
     0.126474      1.62278     0.144376
     0.127057      1.63103     0.144090
     0.127644      1.63864     0.143850
     0.128233      1.64273     0.143850
     0.128825      1.64682     0.143850
     0.129420      1.65460     0.143763
     0.130017      1.66270     0.143670
     0.130617      1.67073     0.143451
     0.131220      1.67873     0.143174
     0.131826      1.68671     0.142936
     0.132434      1.69462     0.142753
     0.133045      1.70208     0.142564
     0.133660      1.70555     0.142322
     0.134276      1.70904     0.142082
     0.134896      1.71461     0.141783
     0.135519      1.72235     0.141425
     0.136144      1.73009     0.141043
     0.136773      1.73774     0.140512
     0.137404      1.74541     0.139983
     0.138038      1.75587     0.139389
     0.138676      1.76724     0.138777
     0.139316      1.77722     0.138041
     0.139959      1.78470     0.137088
     0.140605      1.79221     0.136141
     0.141254      1.80304     0.134954
     0.141906      1.81416     0.133760
     0.142561      1.82348     0.132570
     0.143219      1.83080     0.131384
     0.143880      1.83814     0.130209
     0.144544      1.84893     0.128610
     0.145211      1.85980     0.127028
     0.145881      1.86891     0.124918
     0.146555      1.87606     0.122259
     0.147231      1.88323     0.119657
     0.147911      1.89029     0.117947
     0.148594      1.89737     0.116318
     0.149279      1.90441     0.114211
     0.149968      1.91139     0.111275
     0.150661      1.91839     0.108415
     0.151356      1.92531     0.105756
     0.152055      1.93221     0.103204
     0.152757      1.93866     0.100695
     0.153462      1.94169    0.0981211
     0.154170      1.94472    0.0956130
     0.154882      1.94740    0.0931119
     0.155597      1.94740    0.0902539
     0.156315      1.94740    0.0874835
     0.157036      1.94740    0.0847470
     0.157761      1.94740    0.0820248
     0.158489      1.94740    0.0793901
     0.159221      1.95178    0.0768614
     0.159956      1.95833    0.0744236
     0.160694      1.96491    0.0720630
     0.161436      1.95979    0.0701046
     0.162181      1.95331    0.0682369
     0.162930      1.94740    0.0662980
     0.163682      1.94740    0.0631509
     0.164437      1.94740    0.0601531
     0.165196      1.94740    0.0577494
     0.165959      1.94740    0.0568666
     0.166725      1.94740    0.0559974
     0.167494      1.94631    0.0538779
     0.168267      1.94319    0.0496601
     0.169044      1.94008    0.0457724
     0.169824      1.93567    0.0431155
     0.170608      1.92952    0.0418190
     0.171396      1.92339    0.0405615
     0.172187      1.91870    0.0394681
     0.172982      1.91567    0.0385483
     0.173780      1.91264    0.0376499
     0.174582      1.90964    0.0356542
     0.175388      1.90665    0.0325426
     0.176198      1.90366    0.0297025
     0.177011      1.89949    0.0277935
     0.177828      1.89359    0.0269626
     0.178649      1.88771    0.0261566
     0.179473      1.88206    0.0247729
     0.180302      1.87689    0.0222806
     0.181134      1.87174    0.0200391
     0.181970      1.86660    0.0180230
     0.182810      1.86099    0.0172056
     0.183654      1.85528    0.0166938
     0.184502      1.84958    0.0161971
     0.185353      1.84392    0.0151502
     0.186209      1.83828    0.0138273
     0.187068      1.83267    0.0126199
     0.187932      1.82606    0.0115509
     0.188799      1.81771    0.0106254
     0.189671      1.80941   0.00977410
     0.190546      1.80136   0.00904386
     0.191426      1.79589   0.00895474
     0.192309      1.79043   0.00886649
     0.193197      1.78498   0.00877912
     0.194089      1.73588   0.00588390
     0.194984      1.67384   0.00345105
     0.195884      1.61402   0.00202412
     0.196789      1.57890   0.00140118
     0.197697      1.57295   0.00120879
     0.198609      1.56785   0.00106624
     0.199526      1.56341  0.000957276
     0.200447      1.55947  0.000869679
     0.201372      1.55593  0.000797321
     0.202302      1.55273  0.000738568
     0.203236      1.54979  0.000687314
     0.204174      1.54708  0.000644089
     0.205116      1.54458  0.000606900
     0.206063      1.54224  0.000573533
     0.207014      1.54005  0.000543900
     0.207970      1.53800  0.000516600
     0.208930      1.53608  0.000493500
     0.209894      1.53424  0.000472500
     0.210863      1.53250  0.000452192
     0.211836      1.53087  0.000433994
     0.212814      1.52929  0.000415983
     0.213796      1.52780  0.000401100
     0.214783      1.52637  0.000386878
     0.215774      1.52501  0.000373655
     0.216770      1.52370  0.000361200
     0.217771      1.52244  0.000348600
     0.218776      1.52123  0.000338100
     0.219786      1.52008  0.000327600
     0.220800      1.51896  0.000317100
     0.221820      1.51789  0.000308700
     0.222844      1.51685  0.000298200
     0.223872      1.51585  0.000289800
     0.224905      1.51488  0.000283500
     0.225944      1.51394  0.000275100
     0.226986      1.51304  0.000268800
     0.228034      1.51216  0.000260400
     0.229087      1.51131  0.000254100
     0.230144      1.51049  0.000247800
     0.231206      1.50970  0.000241500
     0.232274      1.50892  0.000235200
     0.233346      1.50818  0.000231000
     0.234423      1.50745  0.000224700
     0.235505      1.50674  0.000220500
     0.236592      1.50605  0.000214485
     0.237684      1.50538  0.000210000
     0.238781      1.50473  0.000205800
     0.239883      1.50409  0.000201600
     0.240991      1.50347  0.000197400
     0.242103      1.50288  0.000193200
     0.243220      1.50230  0.000189000
     0.244343      1.50172  0.000184800
     0.245471      1.50117  0.000182700
     0.246604      1.50062  0.000178500
     0.247742      1.50009  0.000174300
     0.248886      1.49957  0.000172200
     0.250035      1.49908  0.000168000
     0.251189      1.49858  0.000165900
     0.252348      1.49809  0.000161700
     0.253513      1.49763  0.000159600
     0.254683      1.49717  0.000156213
     0.255859      1.49672  0.000153311
     0.257040      1.49629  0.000151200
     0.258226      1.49585  0.000149100
     0.259418      1.49543  0.000147000
     0.260615      1.49503  0.000142800
     0.261818      1.49463  0.000140700
     0.263027      1.49423  0.000138600
     0.264241      1.49385  0.000136500
     0.265461      1.49347  0.000134400
     0.266686      1.49311  0.000132300
     0.267917      1.49274  0.000130200
     0.269153      1.49239  0.000128100
     0.270396      1.49203  0.000126000
     0.271644      1.49170  0.000123900
     0.272898      1.49137  0.000123596
     0.274157      1.49104  0.000121800
     0.275423      1.49072  0.000119700
     0.276694      1.49040  0.000117600
     0.277971      1.49009  0.000115500
     0.279254      1.48979  0.000113400
     0.280543      1.48950  0.000112984
     0.281838      1.48920  0.000111300
     0.283139      1.48892  0.000109200
     0.284446      1.48864  0.000107100
     0.285759      1.48836  0.000107100
     0.287078      1.48809  0.000105000
     0.288403      1.48782  0.000104785
     0.289734      1.48756  0.000102900
     0.291072      1.48730  0.000100800
     0.292415      1.48705  9.87000e-05
     0.293765      1.48681  9.87000e-05
     0.295121      1.48657  9.66000e-05
     0.296483      1.48633  9.66000e-05
     0.297852      1.48609  9.45000e-05
     0.299226      1.48586  9.44478e-05
     0.300608      1.48563  9.24000e-05
     0.301995      1.48541  9.03000e-05
     0.303389      1.48519  9.03000e-05
     0.304790      1.48498  9.03000e-05
     0.306196      1.48476  8.82000e-05
     0.307610      1.48456  8.61000e-05
     0.309030      1.48434  8.61000e-05
     0.310456      1.48415  8.40000e-05
     0.311889      1.48394  8.40000e-05
     0.313329      1.48375  8.40000e-05
     0.314775      1.48356  8.19000e-05
     0.316228      1.48336  8.19000e-05
     0.317687      1.48319  7.98000e-05
     0.319154      1.48300  7.98000e-05
     0.320627      1.48282  7.77000e-05
     0.322107      1.48264  7.77000e-05
     0.323594      1.48247  7.77000e-05
     0.325087      1.48229  7.56000e-05
     0.326588      1.48212  7.56000e-05
     0.328095      1.48195  7.56000e-05
     0.329610      1.48179  7.35000e-05
     0.331131      1.48163  7.35000e-05
     0.332660      1.48146  7.14000e-05
     0.334195      1.48131  7.14000e-05
     0.335738      1.48115  7.14000e-05
     0.337287      1.48100  6.93000e-05
     0.338844      1.48085  6.93000e-05
     0.340408      1.48070  6.93000e-05
     0.341979      1.48055  6.80294e-05
     0.343558      1.48041  6.72000e-05
     0.345144      1.48027  6.72000e-05
     0.346737      1.48012  6.53977e-05
     0.348337      1.47999  6.51000e-05
     0.349945      1.47985  6.51000e-05
     0.351560      1.47972  6.48231e-05
     0.353183      1.47958  6.30000e-05
     0.354813      1.47945  6.30000e-05
     0.356451      1.47932  6.30000e-05
     0.358096      1.47919  6.30000e-05
     0.359749      1.47907  6.09000e-05
     0.361410      1.47895  6.09000e-05
     0.363078      1.47882  6.09000e-05
     0.364754      1.47870  5.88000e-05
     0.366438      1.47858  5.88000e-05
     0.368129      1.47846  5.88000e-05
     0.369828      1.47835  5.88000e-05
     0.371535      1.47823  5.67000e-05
     0.373250      1.47812  5.67000e-05
     0.374973      1.47801  5.67000e-05
     0.376704      1.47789  5.67000e-05
     0.378443      1.47779  5.46000e-05
     0.380189      1.47768  5.46000e-05
     0.381944      1.47757  5.46000e-05
     0.383707      1.47747  5.46000e-05
     0.385478      1.47736  5.46000e-05
     0.387258      1.47726  5.34311e-05
     0.389045      1.47716  5.25000e-05
     0.390841      1.47707  5.25000e-05
     0.392645      1.47696  5.25000e-05
     0.394457      1.47687  5.25000e-05
     0.396278      1.47677  5.04000e-05
     0.398107      1.47668  5.04000e-05
     0.399945      1.47659  5.04000e-05
     0.401791      1.47649  5.04000e-05
     0.403645      1.47640  5.04000e-05
     0.405509      1.47631  4.83000e-05
     0.407380      1.47622  4.83000e-05
     0.409261      1.47614  4.83000e-05
     0.411150      1.47604  4.83000e-05
     0.413047      1.47596  4.83000e-05
     0.414954      1.47587  4.83000e-05
     0.416869      1.47579  4.83000e-05
     0.418794      1.47571  4.62000e-05
     0.420727      1.47562  4.62000e-05
     0.422669      1.47554  4.62000e-05
     0.424620      1.47546  4.62000e-05
     0.426580      1.47539  4.62000e-05
     0.428549      1.47531  4.41000e-05
     0.430527      1.47523  4.41000e-05
     0.432514      1.47515  4.41000e-05
     0.434510      1.47507  4.41000e-05
     0.436516      1.47500  4.41000e-05
     0.438531      1.47493  4.41000e-05
     0.440555      1.47486  4.20017e-05
     0.442588      1.47478  4.20000e-05
     0.444631      1.47471  4.20000e-05
     0.446684      1.47464  4.20000e-05
     0.448745      1.47457  4.20000e-05
     0.450817      1.47450  4.20000e-05
     0.452898      1.47443  4.20000e-05
     0.454988      1.47436  3.99000e-05
     0.457088      1.47430  3.99000e-05
     0.459198      1.47423  3.99000e-05
     0.461318      1.47416  3.99000e-05
     0.463447      1.47410  3.99000e-05
     0.465586      1.47403  3.99000e-05
     0.467735      1.47396  3.99000e-05
     0.469894      1.47391  3.99000e-05
     0.472063      1.47385  3.99000e-05
     0.474242      1.47378  3.99000e-05
     0.476431      1.47373  3.78000e-05
     0.478630      1.47366  3.78000e-05
     0.480839      1.47360  3.78000e-05
     0.483059      1.47354  3.78000e-05
     0.485289      1.47348  3.78000e-05
     0.487529      1.47342  3.78000e-05
     0.489779      1.47336  3.78000e-05
     0.492040      1.47332  3.78000e-05
     0.494311      1.47325  3.57000e-05
     0.496592      1.47320  3.57000e-05
     0.498884      1.47315  3.57000e-05
     0.501187      1.47309  3.57000e-05
     0.503501      1.47303  3.57000e-05
     0.505825      1.47298  3.57000e-05
     0.508159      1.47293  3.57000e-05
     0.510505      1.47287  3.57000e-05
     0.512861      1.47282  3.57000e-05
     0.515229      1.47277  3.36000e-05
     0.517607      1.47272  3.36000e-05
     0.519996      1.47266  3.36000e-05
     0.522396      1.47261  3.36000e-05
     0.524807      1.47257  3.36000e-05
     0.527230      1.47252  3.36000e-05
     0.529663      1.47246  3.36000e-05
     0.532108      1.47242  3.36000e-05
     0.534564      1.47237  3.36000e-05
     0.537032      1.47232  3.36000e-05
     0.539511      1.47227  3.15000e-05
     0.542001      1.47223  3.15000e-05
     0.544503      1.47218  3.15000e-05
     0.547016      1.47213  3.15000e-05
     0.549541      1.47209  3.15000e-05
     0.552077      1.47204  3.15000e-05
     0.554626      1.47200  3.15000e-05
     0.557186      1.47196  3.15000e-05
     0.559758      1.47191  3.15000e-05
     0.562341      1.47187  3.15000e-05
     0.564937      1.47183  3.15000e-05
     0.567545      1.47178  3.15000e-05
     0.570164      1.47174  3.15000e-05
     0.572796      1.47170  3.15000e-05
     0.575440      1.47165  3.15000e-05
     0.578096      1.47161  3.15000e-05
     0.580764      1.47156  2.94000e-05
     0.583445      1.47152  2.94000e-05
     0.586138      1.47148  2.94000e-05
     0.588844      1.47144  2.94000e-05
     0.591562      1.47140  2.94000e-05
     0.594292      1.47136  2.94000e-05
     0.597035      1.47132  2.94000e-05
     0.599791      1.47128  2.94000e-05
     0.602560      1.47124  2.94000e-05
     0.605341      1.47121  2.94000e-05
     0.608135      1.47117  2.94000e-05
     0.610942      1.47113  2.94000e-05
     0.613762      1.47109  2.94000e-05
     0.616595      1.47105  2.94000e-05
     0.619441      1.47102  2.73000e-05
     0.622300      1.47098  2.73000e-05
     0.625173      1.47094  2.73000e-05
     0.628058      1.47090  2.73000e-05
     0.630957      1.47086  2.73000e-05
     0.633870      1.47083  2.73000e-05
     0.636796      1.47079  2.73000e-05
     0.639735      1.47076  2.73000e-05
     0.642688      1.47071  2.73000e-05
     0.645654      1.47068  2.73000e-05
     0.648634      1.47065  2.73000e-05
     0.651628      1.47061  2.73000e-05
     0.654636      1.47058  2.73000e-05
     0.657658      1.47055  2.73000e-05
     0.660693      1.47643  2.68169e-05
     0.663743      1.48233  2.63315e-05
     0.666807      1.48438  2.61986e-05
     0.669885      1.48408  2.62817e-05
     0.672977      1.48377  2.63651e-05
     0.676083      1.48346  2.64489e-05
     0.679204      1.48316  2.65331e-05
     0.682339      1.48285  2.66177e-05
     0.685488      1.48254  2.67027e-05
     0.688652      1.48222  2.67881e-05
     0.691831      1.48191  2.68738e-05
     0.695024      1.48159  2.69600e-05
     0.698232      1.48128  2.70465e-05
     0.701455      1.48096  2.71335e-05
     0.704693      1.48064  2.72209e-05
     0.707946      1.48032  2.73086e-05
     0.711214      1.47999  2.73968e-05
     0.714496      1.47967  2.74854e-05
     0.717794      1.47934  2.75744e-05
     0.721107      1.47901  2.76638e-05
     0.724436      1.47869  2.77536e-05
     0.727780      1.47835  2.78438e-05
     0.731139      1.47802  2.79344e-05
     0.734514      1.47769  2.80255e-05
     0.737904      1.47735  2.81170e-05
     0.741310      1.47702  2.82089e-05
     0.744732      1.47668  2.83012e-05
     0.748169      1.47634  2.83939e-05
     0.751623      1.47600  2.84871e-05
     0.755092      1.47565  2.85807e-05
     0.758578      1.47531  2.86748e-05
     0.762079      1.47496  2.87692e-05
     0.765597      1.47462  2.88641e-05
     0.769130      1.47426  2.89599e-05
     0.772681      1.47387  2.90614e-05
     0.776247      1.47347  2.91634e-05
     0.779830      1.47307  2.92659e-05
     0.783430      1.47267  2.93688e-05
     0.787046      1.47227  2.94722e-05
     0.790679      1.47187  2.95761e-05
     0.794328      1.47146  2.96805e-05
     0.797995      1.47105  2.97854e-05
     0.801678      1.47064  2.98907e-05
     0.805378      1.47023  2.99965e-05
     0.809096      1.46982  3.01028e-05
     0.812831      1.46940  3.02096e-05
     0.816582      1.46898  3.03169e-05
     0.820352      1.46856  3.04247e-05
     0.824138      1.46814  3.05330e-05
     0.827942      1.46772  3.06418e-05
     0.831764      1.46729  3.07511e-05
     0.835603      1.46686  3.08609e-05
     0.839460      1.46644  3.09712e-05
     0.843335      1.46600  3.10820e-05
     0.847227      1.46557  3.11934e-05
     0.851138      1.46514  3.13052e-05
     0.855067      1.46470  3.14175e-05
     0.859013      1.46426  3.15304e-05
     0.862979      1.46416  3.16504e-05
     0.866962      1.46456  3.17803e-05
     0.870964      1.46495  3.19108e-05
     0.874984      1.46535  3.20418e-05
     0.879023      1.46575  3.21735e-05
     0.883080      1.46615  3.23058e-05
     0.887156      1.46655  3.24387e-05
     0.891251      1.46696  3.25723e-05
     0.895365      1.46737  3.27064e-05
     0.899498      1.46778  3.28412e-05
     0.903649      1.46819  3.29765e-05
     0.907821      1.46860  3.31125e-05
     0.912011      1.46901  3.32492e-05
     0.916220      1.46943  3.33864e-05
     0.920450      1.46985  3.35243e-05
     0.924698      1.47027  3.36629e-05
     0.928966      1.47069  3.38020e-05
     0.933254      1.47112  3.39419e-05
