#DISTRIBUTEDBY=Aerosol Refractive Index Archive (www.atm.ox.ac.uk/project/RI/)
#DESCRIPTION=Refractive indices of Olivine from 0 to 5000 cm-1.
#SUBSTANCE=Olivine
#SAMPLEFORM=Solid
#TEMPERATURE=
#CONCENTRATION=
#REFERENCE=D. Fabian, Th. Henning, C. Jäger, H. Mutschke, J. Dorschner, O. Werhan, Astron. Astrophys. 378, 228 (2001).
#CONTACT=
#COMMENT=Optical constants in Y ORIENTATION (i.e. E||y) of a natural olivine single crystal
#FORMAT=WAVN N K 
 0.00000	2.698256	0.000000
 1.22100	2.698270	0.000100
 2.44170	2.698300	0.000200
 3.66240	2.698360	0.000300
 4.88310	2.698450	0.000401
 6.10380	2.698550	0.000501
 7.32450	2.698680	0.000601
 8.54520	2.698840	0.000702
 9.76590	2.699010	0.000802
 10.98660	2.699220	0.000903
 12.20730	2.699440	0.001000
 13.42800	2.699690	0.001100
 14.64870	2.699960	0.001210
 15.86940	2.700260	0.001310
 17.09010	2.700580	0.001410
 18.31080	2.700930	0.001510
 19.53150	2.701300	0.001610
 20.75220	2.701700	0.001720
 21.97290	2.702110	0.001820
 23.19360	2.702560	0.001920
 24.41430	2.703030	0.002030
 25.63500	2.703520	0.002130
 26.85570	2.704040	0.002230
 28.07640	2.704580	0.002340
 29.29710	2.705150	0.002450
 30.51780	2.705740	0.002550
 31.73850	2.706360	0.002660
 32.95920	2.707000	0.002760
 34.17990	2.707670	0.002870
 35.40060	2.708370	0.002980
 36.62130	2.709090	0.003090
 37.84200	2.709840	0.003200
 39.06270	2.710610	0.003310
 40.28340	2.711410	0.003420
 41.50410	2.712240	0.003530
 42.72480	2.713090	0.003640
 43.94550	2.713970	0.003750
 45.16620	2.714880	0.003870
 46.38690	2.715820	0.003980
 47.60760	2.716780	0.004100
 48.82830	2.717770	0.004210
 50.04900	2.718800	0.004330
 51.26969	2.719850	0.004450
 52.49039	2.720920	0.004570
 53.71109	2.722030	0.004690
 54.93179	2.723170	0.004810
 56.15249	2.724340	0.004930
 57.37319	2.725540	0.005060
 58.59389	2.726760	0.005180
 59.81459	2.728020	0.005310
 61.03529	2.729320	0.005430
 62.25599	2.730640	0.005560
 63.47669	2.732000	0.005690
 64.69739	2.733380	0.005820
 65.91809	2.734810	0.005960
 67.13879	2.736260	0.006090
 68.35949	2.737750	0.006230
 69.58019	2.739280	0.006370
 70.80089	2.740840	0.006510
 72.02159	2.742440	0.006650
 73.24229	2.744070	0.006790
 74.46299	2.745750	0.006940
 75.68369	2.747460	0.007090
 76.90439	2.749210	0.007240
 78.12509	2.751000	0.007390
 79.34579	2.752830	0.007550
 80.56649	2.754700	0.007710
 81.78719	2.756620	0.007870
 83.00789	2.758580	0.008040
 84.22859	2.760590	0.008200
 85.44929	2.762640	0.008380
 86.66999	2.764740	0.008550
 87.89069	2.766890	0.008730
 89.11139	2.769090	0.008910
 90.33209	2.771340	0.009100
 91.55279	2.773650	0.009300
 92.77349	2.776020	0.009490
 93.99419	2.778440	0.009700
 95.21489	2.780930	0.009910
 96.43559	2.783480	0.010130
 97.65629	2.786100	0.010350
 98.87699	2.788790	0.010590
 100.09769	2.791550	0.010830
 101.31839	2.794390	0.011080
 102.53909	2.797310	0.011350
 103.75979	2.800320	0.011620
 104.98049	2.803430	0.011910
 106.20119	2.806640	0.012220
 107.42189	2.809950	0.012550
 108.64259	2.813380	0.012900
 109.86329	2.816950	0.013270
 111.08399	2.820650	0.013670
 112.30469	2.824500	0.014110
 113.52539	2.828520	0.014580
 114.74609	2.832740	0.015110
 115.96679	2.837170	0.015690
 117.18749	2.841840	0.016340
 118.40819	2.846780	0.017090
 119.62889	2.852060	0.017950
 120.84959	2.857700	0.018950
 122.07029	2.863790	0.020130
 123.29099	2.870420	0.021560
 124.51169	2.877700	0.023330
 125.73239	2.885780	0.025560
 126.95309	2.894870	0.028440
 128.17379	2.905250	0.032290
 129.39449	2.917280	0.037630
 130.61519	2.931460	0.045340
 131.83589	2.948360	0.057030
 133.05659	2.968380	0.075800
 134.27729	2.990460	0.107770
 135.49799	3.006710	0.163930
 136.71869	2.986320	0.252330
 137.93939	2.879940	0.322530
 139.16009	2.754460	0.279110
 140.38079	2.713510	0.187820
 141.60149	2.723580	0.123230
 142.82219	2.745400	0.086110
 144.04289	2.766610	0.064770
 145.26359	2.784950	0.051900
 146.48429	2.800560	0.043730
 147.70499	2.814000	0.038310
 148.92569	2.825800	0.034590
 150.14639	2.836350	0.031970
 151.36708	2.845940	0.030100
 152.58778	2.854810	0.028740
 153.80848	2.863120	0.027760
 155.02918	2.870990	0.027050
 156.24988	2.878510	0.026550
 157.47058	2.885780	0.026210
 158.69128	2.892830	0.025990
 159.91198	2.899730	0.025880
 161.13268	2.906510	0.025850
 162.35338	2.913200	0.025890
 163.57408	2.919830	0.025990
 164.79478	2.926420	0.026140
 166.01548	2.932990	0.026340
 167.23618	2.939560	0.026570
 168.45688	2.946140	0.026840
 169.67758	2.952740	0.027140
 170.89828	2.959370	0.027460
 172.11898	2.966050	0.027820
 173.33968	2.972790	0.028200
 174.56038	2.979580	0.028610
 175.78108	2.986450	0.029030
 177.00178	2.993390	0.029490
 178.22248	3.000420	0.029960
 179.44318	3.007540	0.030460
 180.66388	3.014760	0.030970
 181.88458	3.022080	0.031510
 183.10528	3.029510	0.032080
 184.32598	3.037060	0.032660
 185.54668	3.044730	0.033270
 186.76738	3.052530	0.033900
 187.98808	3.060470	0.034550
 189.20878	3.068540	0.035230
 190.42948	3.076760	0.035930
 191.65018	3.085140	0.036660
 192.87088	3.093670	0.037420
 194.09158	3.102380	0.038200
 195.31228	3.111250	0.039020
 196.53298	3.120310	0.039860
 197.75368	3.129550	0.040730
 198.97438	3.138990	0.041640
 200.19508	3.148630	0.042580
 201.41578	3.158480	0.043560
 202.63648	3.168550	0.044580
 203.85718	3.178850	0.045630
 205.07788	3.189390	0.046730
 206.29858	3.200170	0.047870
 207.51928	3.211210	0.049060
 208.73998	3.222520	0.050300
 209.96068	3.234110	0.051580
 211.18138	3.246000	0.052930
 212.40208	3.258180	0.054330
 213.62278	3.270690	0.055790
 214.84348	3.283520	0.057310
 216.06418	3.296700	0.058910
 217.28488	3.310250	0.060580
 218.50558	3.324170	0.062330
 219.72628	3.338490	0.064160
 220.94698	3.353230	0.066080
 222.16768	3.368400	0.068090
 223.38838	3.384030	0.070210
 224.60908	3.400140	0.072440
 225.82978	3.416760	0.074780
 227.05048	3.433910	0.077250
 228.27118	3.451620	0.079860
 229.49188	3.469930	0.082620
 230.71258	3.488860	0.085540
 231.93328	3.508450	0.088630
 233.15398	3.528740	0.091900
 234.37468	3.549770	0.095380
 235.59538	3.571590	0.099090
 236.81608	3.594250	0.103030
 238.03678	3.617800	0.107240
 239.25748	3.642300	0.111750
 240.47818	3.667820	0.116570
 241.69888	3.694420	0.121750
 242.91958	3.722180	0.127320
 244.14028	3.751190	0.133320
 245.36098	3.781540	0.139800
 246.58168	3.813340	0.146820
 247.80238	3.846700	0.154440
 249.02308	3.881750	0.162740
 250.24378	3.918630	0.171800
 251.46447	3.957510	0.181720
 252.68517	3.998560	0.192620
 253.90587	4.041980	0.204640
 255.12657	4.088010	0.217940
 256.34727	4.136900	0.232730
 257.56797	4.188940	0.249220
 258.78867	4.244470	0.267720
 260.00937	4.303880	0.288570
 261.23007	4.367580	0.312190
 262.45077	4.436080	0.339110
 263.67147	4.509960	0.369990
 264.89217	4.589870	0.405670
 266.11287	4.676550	0.447200
 267.33357	4.770840	0.495940
 268.55427	4.873690	0.553670
 269.77497	4.986130	0.622730
 270.99567	5.109200	0.706250
 272.21637	5.243840	0.808440
 273.43707	5.390660	0.935000
 274.65777	5.549370	1.093760
 275.87847	5.717790	1.295390
 277.09917	5.889800	1.554030
 278.31987	6.051740	1.887360
 279.54057	6.176560	2.314100
 280.76127	6.216690	2.844710
 281.98197	6.103720	3.460810
 283.20267	5.772380	4.089020
 284.42337	5.216170	4.605620
 285.64407	4.521300	4.904070
 286.86477	3.816980	4.964860
 288.08547	3.196050	4.844180
 289.30617	2.691300	4.616240
 290.52687	2.297260	4.337690
 291.74757	1.994900	4.042350
 292.96827	1.764410	3.747590
 294.18897	1.589590	3.461140
 295.40967	1.458340	3.185550
 296.63037	1.362160	2.920910
 297.85107	1.295380	2.666160
 299.07177	1.254630	2.419960
 300.29247	1.238390	2.181160
 301.51317	1.246700	1.949440
 302.73387	1.280690	1.725910
 303.95457	1.341590	1.513910
 305.17527	1.429040	1.318950
 306.39597	1.539300	1.147220
 307.61667	1.665360	1.002760
 308.83737	1.799300	0.885750
 310.05807	1.934860	0.793250
 311.27877	2.068330	0.721110
 312.49947	2.198040	0.665350
 313.72017	2.323610	0.622700
 314.94087	2.445360	0.590690
 316.16157	2.563950	0.567490
 317.38227	2.680190	0.551830
 318.60297	2.794960	0.542840
 319.82367	2.909150	0.539980
 321.04437	3.023660	0.542980
 322.26507	3.139410	0.551840
 323.48577	3.257350	0.566780
 324.70647	3.378490	0.588270
 325.92717	3.503830	0.617080
 327.14787	3.634500	0.654310
 328.36857	3.771680	0.701540
 329.58927	3.916610	0.760890
 330.80997	4.070510	0.835280
 332.03067	4.234550	0.928740
 333.25137	4.409520	1.046780
 334.47207	4.595350	1.196980
 335.69277	4.790090	1.389740
 336.91347	4.987920	1.638870
 338.13417	5.175620	1.961710
 339.35487	5.326710	2.376380
 340.57557	5.394690	2.892590
 341.79627	5.313350	3.490930
 343.01697	5.021920	4.098500
 344.23767	4.519120	4.596740
 345.45837	3.891090	4.889170
 346.67907	3.258690	4.963660
 347.89977	2.704370	4.875650
 349.12047	2.255100	4.693630
 350.34117	1.904180	4.468480
 351.56186	1.633630	4.230110
 352.78256	1.425280	3.993780
 354.00326	1.264260	3.766220
 355.22396	1.139420	3.549750
 356.44466	1.042650	3.344470
 357.66536	0.968190	3.149470
 358.88606	0.911970	2.963390
 360.10676	0.871220	2.784730
 361.32746	0.844210	2.612000
 362.54816	0.830040	2.443840
 363.76886	0.828550	2.278990
 364.98956	0.840340	2.116520
 366.21026	0.866770	1.955920
 367.43096	0.909930	1.797500
 368.65166	0.972470	1.642820
 369.87236	1.056970	1.495310
 371.09306	1.164610	1.360390
 372.31376	1.293850	1.244420
 373.53446	1.440150	1.152570
 374.75516	1.597720	1.087200
 375.97586	1.761580	1.048280
 377.19656	1.928520	1.034820
 378.41726	2.096790	1.046260
 379.63796	2.265420	1.083240
 380.85866	2.433290	1.148000
 382.07936	2.598160	1.244500
 383.30006	2.755280	1.378330
 384.52076	2.895620	1.555950
 385.74146	3.003510	1.782270
 386.96216	3.055340	2.055320
 388.18286	3.023060	2.357860
 389.40356	2.887090	2.651550
 390.62426	2.654680	2.885530
 391.84496	2.364790	3.021350
 393.06566	2.068440	3.052120
 394.28636	1.804310	2.997180
 395.50706	1.590660	2.883990
 396.72776	1.431480	2.735650
 397.94846	1.324980	2.567620
 399.16916	1.269490	2.389570
 400.38986	1.266490	2.208720
 401.61056	1.321720	2.034440
 402.83126	1.443220	1.883780
 404.05196	1.634100	1.785990
 405.27266	1.881780	1.780540
 406.49336	2.149270	1.909760
 407.71406	2.361210	2.207100
 408.93476	2.389590	2.647880
 410.15546	2.137910	3.066850
 411.37616	1.713240	3.266470
 412.59686	1.314210	3.243600
 413.81756	1.021620	3.108500
 415.03826	0.824220	2.941050
 416.25896	0.692200	2.774790
 417.47966	0.602530	2.619920
 418.70036	0.540590	2.477860
 419.92106	0.497490	2.347330
 421.14176	0.467830	2.226380
 422.36246	0.448300	2.113130
 423.58316	0.436910	2.005910
 424.80386	0.432520	1.903360
 426.02456	0.434610	1.804330
 427.24526	0.443130	1.707910
 428.46596	0.458450	1.613400
 429.68666	0.481350	1.520430
 430.90736	0.512980	1.429030
 432.12806	0.554900	1.339810
 433.34876	0.608790	1.254270
 434.56946	0.676150	1.175100
 435.79016	0.757500	1.106090
 437.01086	0.851750	1.051660
 438.23156	0.956060	1.015770
 439.45226	1.066450	1.001210
 440.67296	1.178710	1.009640
 441.89366	1.288630	1.042170
 443.11436	1.391650	1.099870
 444.33506	1.481980	1.183620
 445.55576	1.551860	1.293130
 446.77646	1.591470	1.425040
 447.99716	1.590650	1.570630
 449.21786	1.542860	1.714700
 450.43856	1.450160	1.838390
 451.65925	1.324830	1.925870
 452.87995	1.184900	1.970490
 454.10065	1.047030	1.975370
 455.32135	0.922000	1.949280
 456.54205	0.814450	1.901960
 457.76275	0.724850	1.841520
 458.98345	0.651560	1.773690
 460.20415	0.592250	1.702190
 461.42485	0.544630	1.629210
 462.64555	0.506700	1.556000
 463.86625	0.476840	1.483150
 465.08695	0.453790	1.410870
 466.30765	0.436640	1.339140
 467.52835	0.424760	1.267790
 468.74905	0.417750	1.196590
 469.96975	0.415480	1.125250
 471.19045	0.418020	1.053500
 472.41115	0.425720	0.981110
 473.63185	0.439170	0.908010
 474.85255	0.459250	0.834330
 476.07325	0.487080	0.760710
 477.29395	0.523740	0.688410
 478.51465	0.569900	0.619520
 479.73535	0.625190	0.556540
 480.95605	0.687990	0.501680
 482.17675	0.755950	0.456060
 483.39745	0.826810	0.419600
 484.61815	0.899030	0.391460
 485.83885	0.971830	0.370650
 487.05955	1.045070	0.356320
 488.28025	1.119030	0.347970
 489.50095	1.194280	0.345510
 490.72165	1.271610	0.349340
 491.94235	1.351990	0.360520
 493.16305	1.436440	0.381060
 494.38375	1.525830	0.414460
 495.60445	1.620140	0.466640
 496.82515	1.716400	0.547250
 498.04585	1.803260	0.670180
 499.26655	1.850080	0.847040
 500.48725	1.802210	1.058050
 501.70795	1.631590	1.217020
 502.92865	1.412050	1.239990
 504.14935	1.247020	1.146180
 505.37005	1.173320	1.006260
 506.59075	1.177540	0.872970
 507.81145	1.232270	0.770790
 509.03215	1.313320	0.704760
 510.25285	1.405370	0.670770
 511.47355	1.500820	0.663110
 512.69425	1.596460	0.677670
 513.91495	1.690880	0.712560
 515.13565	1.782910	0.767790
 516.35635	1.870630	0.844860
 517.57705	1.950460	0.946240
 518.79775	2.016150	1.074510
 520.01845	2.058040	1.230600
 521.23915	2.063130	1.410880
 522.45985	2.017940	1.603670
 523.68055	1.914890	1.788060
 524.90125	1.759430	1.939120
 526.12195	1.570880	2.038430
 527.34265	1.374080	2.081710
 528.56335	1.189130	2.077310
 529.78405	1.026820	2.038920
 531.00475	0.890080	1.979520
 532.22545	0.777290	1.908870
 533.44615	0.685070	1.833370
 534.66685	0.609760	1.756840
 535.88755	0.548070	1.681460
 537.10825	0.497300	1.608320
 538.32895	0.455280	1.537890
 539.54965	0.420310	1.470300
 540.77035	0.391080	1.405480
 541.99105	0.366560	1.343240
 543.21175	0.345940	1.283360
 544.43245	0.328620	1.225580
 545.65315	0.314110	1.169660
 546.87385	0.302030	1.115340
 548.09455	0.292090	1.062400
 549.31525	0.284100	1.010590
 550.53595	0.277890	0.959710
 551.75664	0.273370	0.909550
 552.97734	0.270500	0.859900
 554.19804	0.269290	0.810590
 555.41874	0.269820	0.761430
 556.63944	0.272230	0.712270
 557.86014	0.276730	0.662970
 559.08084	0.283630	0.613470
 560.30154	0.293360	0.563780
 561.52224	0.306430	0.514100
 562.74294	0.323400	0.464900
 563.96364	0.344730	0.416980
 565.18434	0.370570	0.371510
 566.40504	0.400450	0.329760
 567.62574	0.433310	0.292730
 568.84644	0.467770	0.260820
 570.06714	0.502540	0.233810
 571.28784	0.536690	0.211120
 572.50854	0.569660	0.192030
 573.72924	0.601170	0.175880
 574.94994	0.631130	0.162110
 576.17064	0.659550	0.150260
 577.39134	0.686500	0.139970
 578.61204	0.712080	0.130960
 579.83274	0.736370	0.123010
 581.05344	0.759480	0.115950
 582.27414	0.781510	0.109640
 583.49484	0.802530	0.103960
 584.71554	0.822630	0.098830
 585.93624	0.841880	0.094170
 587.15694	0.860340	0.089910
 588.37764	0.878070	0.086020
 589.59834	0.895130	0.082440
 590.81904	0.911560	0.079140
 592.03974	0.927410	0.076090
 593.26044	0.942710	0.073270
 594.48114	0.957500	0.070640
 595.70184	0.971820	0.068190
 596.92254	0.985680	0.065900
 598.14324	0.999130	0.063760
 599.36394	1.012190	0.061750
 600.58464	1.024870	0.059860
 601.80534	1.037200	0.058090
 603.02604	1.049200	0.056420
 604.24674	1.060890	0.054840
 605.46744	1.072280	0.053350
 606.68814	1.083390	0.051940
 607.90884	1.094230	0.050600
 609.12954	1.104820	0.049330
 610.35024	1.115160	0.048120
 611.57094	1.125280	0.046980
 612.79164	1.135180	0.045890
 614.01234	1.144870	0.044850
 615.23304	1.154360	0.043860
 616.45374	1.163660	0.042920
 617.67444	1.172770	0.042010
 618.89514	1.181720	0.041150
 620.11584	1.190500	0.040330
 621.33654	1.199110	0.039540
 622.55724	1.207580	0.038790
 623.77794	1.215900	0.038060
 624.99864	1.224080	0.037370
 626.21934	1.232130	0.036700
 627.44004	1.240040	0.036060
 628.66074	1.247830	0.035450
 629.88144	1.255510	0.034860
 631.10214	1.263070	0.034300
 632.32284	1.270520	0.033750
 633.54354	1.277860	0.033230
 634.76424	1.285100	0.032720
 635.98494	1.292240	0.032240
 637.20564	1.299290	0.031770
 638.42634	1.306250	0.031320
 639.64704	1.313120	0.030890
 640.86774	1.319910	0.030480
 642.08844	1.326620	0.030070
 643.30914	1.333250	0.029690
 644.52984	1.339800	0.029310
 645.75054	1.346280	0.028960
 646.97124	1.352690	0.028610
 648.19194	1.359040	0.028280
 649.41264	1.365320	0.027950
 650.63334	1.371540	0.027640
 651.85403	1.377700	0.027340
 653.07473	1.383810	0.027060
 654.29543	1.389850	0.026780
 655.51613	1.395850	0.026510
 656.73683	1.401790	0.026250
 657.95753	1.407690	0.026000
 659.17823	1.413540	0.025770
 660.39893	1.419340	0.025540
 661.61963	1.425100	0.025310
 662.84033	1.430820	0.025100
 664.06103	1.436500	0.024900
 665.28173	1.442140	0.024700
 666.50243	1.447740	0.024510
 667.72313	1.453310	0.024330
 668.94383	1.458850	0.024150
 670.16453	1.464350	0.023990
 671.38523	1.469830	0.023830
 672.60593	1.475280	0.023680
 673.82663	1.480700	0.023530
 675.04733	1.486090	0.023390
 676.26803	1.491460	0.023260
 677.48873	1.496810	0.023130
 678.70943	1.502140	0.023010
 679.93013	1.507450	0.022900
 681.15083	1.512740	0.022790
 682.37153	1.518010	0.022690
 683.59223	1.523260	0.022590
 684.81293	1.528500	0.022500
 686.03363	1.533730	0.022420
 687.25433	1.538950	0.022340
 688.47503	1.544150	0.022270
 689.69573	1.549350	0.022200
 690.91643	1.554540	0.022140
 692.13713	1.559720	0.022080
 693.35783	1.564890	0.022030
 694.57853	1.570060	0.021990
 695.79923	1.575230	0.021950
 697.01993	1.580400	0.021920
 698.24063	1.585560	0.021890
 699.46133	1.590730	0.021870
 700.68203	1.595900	0.021850
 701.90273	1.601070	0.021840
 703.12343	1.606240	0.021830
 704.34413	1.611420	0.021830
 705.56483	1.616610	0.021830
 706.78553	1.621810	0.021840
 708.00623	1.627020	0.021860
 709.22693	1.632230	0.021880
 710.44763	1.637460	0.021910
 711.66833	1.642710	0.021940
 712.88903	1.647970	0.021980
 714.10973	1.653240	0.022020
 715.33043	1.658530	0.022070
 716.55113	1.663850	0.022130
 717.77183	1.669180	0.022190
 718.99253	1.674530	0.022260
 720.21323	1.679910	0.022330
 721.43393	1.685320	0.022420
 722.65463	1.690750	0.022500
 723.87533	1.696200	0.022600
 725.09603	1.701690	0.022700
 726.31673	1.707210	0.022800
 727.53743	1.712770	0.022920
 728.75813	1.718360	0.023040
 729.97883	1.723980	0.023170
 731.19953	1.729650	0.023310
 732.42023	1.735350	0.023450
 733.64093	1.741100	0.023600
 734.86163	1.746890	0.023760
 736.08233	1.752730	0.023930
 737.30303	1.758620	0.024110
 738.52373	1.764560	0.024290
 739.74443	1.770550	0.024490
 740.96513	1.776590	0.024690
 742.18583	1.782700	0.024910
 743.40653	1.788860	0.025130
 744.62723	1.795090	0.025370
 745.84793	1.801380	0.025610
 747.06863	1.807740	0.025870
 748.28933	1.814170	0.026140
 749.51003	1.820680	0.026410
 750.73073	1.827260	0.026710
 751.95142	1.833920	0.027010
 753.17212	1.840670	0.027330
 754.39282	1.847500	0.027660
 755.61352	1.854420	0.028010
 756.83422	1.861440	0.028370
 758.05492	1.868550	0.028750
 759.27562	1.875770	0.029140
 760.49632	1.883090	0.029550
 761.71702	1.890520	0.029980
 762.93772	1.898070	0.030430
 764.15842	1.905730	0.030900
 765.37912	1.913530	0.031380
 766.59982	1.921450	0.031890
 767.82052	1.929510	0.032430
 769.04122	1.937710	0.032990
 770.26192	1.946060	0.033570
 771.48262	1.954560	0.034180
 772.70332	1.963230	0.034820
 773.92402	1.972060	0.035490
 775.14472	1.981080	0.036190
 776.36542	1.990270	0.036920
 777.58612	1.999660	0.037690
 778.80682	2.009250	0.038500
 780.02752	2.019060	0.039350
 781.24822	2.029090	0.040250
 782.46892	2.039350	0.041190
 783.68962	2.049860	0.042180
 784.91032	2.060630	0.043220
 786.13102	2.071670	0.044320
 787.35172	2.083000	0.045480
 788.57242	2.094640	0.046710
 789.79312	2.106590	0.048020
 791.01382	2.118880	0.049390
 792.23452	2.131520	0.050860
 793.45522	2.144550	0.052420
 794.67592	2.157980	0.054070
 795.89662	2.171840	0.055840
 797.11732	2.186150	0.057730
