#DISTRIBUTEDBY=Aerosol Refractive Index Archive (www.atm.ox.ac.uk/project/RI/)
#DESCRIPTION=Refractive indices of Olivine from 0 to 5000 cm-1.
#SUBSTANCE=Olivine
#SAMPLEFORM=Solid
#TEMPERATURE=
#CONCENTRATION=
#REFERENCE=D. Fabian, Th. Henning, C. Jäger, H. Mutschke, J. Dorschner, O. Werhan, Astron. Astrophys. 378, 228 (2001).
#CONTACT=
#COMMENT=Optical constants in X ORIENTATION (i.e. E||x) of a natural olivine single crystal
#FORMAT=WAVN N K 
 0.00000	2.626550	0.000000
 1.22100	2.626558	0.000082
 2.44100	2.626581	0.000165
 3.66200	2.626620	0.000247
 4.88300	2.626676	0.000330
 6.10300	2.626746	0.000412
 7.32400	2.626833	0.000495
 8.54500	2.626935	0.000578
 9.76600	2.627053	0.000660
 10.98600	2.627187	0.000743
 12.20700	2.627337	0.000826
 13.42800	2.627502	0.000909
 14.64800	2.627683	0.000992
 15.86900	2.627881	0.001076
 17.09000	2.628094	0.001159
 18.31000	2.628323	0.001243
 19.53100	2.628568	0.001326
 20.75200	2.628829	0.001410
 21.97300	2.629106	0.001494
 23.19300	2.629399	0.001579
 24.41400	2.629708	0.001663
 25.63500	2.630033	0.001748
 26.85500	2.630375	0.001833
 28.07600	2.630733	0.001919
 29.29700	2.631107	0.002004
 30.51700	2.631497	0.002090
 31.73800	2.631904	0.002176
 32.95900	2.632327	0.002262
 34.18000	2.632767	0.002349
 35.40000	2.633223	0.002436
 36.62100	2.633696	0.002524
 37.84200	2.634186	0.002611
 39.06200	2.634692	0.002699
 40.28300	2.635216	0.002788
 41.50400	2.635756	0.002877
 42.72400	2.636313	0.002966
 43.94500	2.636887	0.003056
 45.16600	2.637479	0.003146
 46.38700	2.638087	0.003237
 47.60700	2.638713	0.003328
 48.82800	2.639357	0.003419
 50.04900	2.640018	0.003511
 51.26900	2.640696	0.003604
 52.49000	2.641392	0.003697
 53.71100	2.642107	0.003791
 54.93100	2.642838	0.003885
 56.15200	2.643589	0.003980
 57.37300	2.644356	0.004075
 58.59400	2.645143	0.004171
 59.81400	2.645948	0.004268
 61.03500	2.646771	0.004366
 62.25600	2.647613	0.004464
 63.47600	2.648474	0.004563
 64.69700	2.649353	0.004662
 65.91800	2.650252	0.004762
 67.13800	2.651170	0.004863
 68.35900	2.652107	0.004965
 69.58000	2.653064	0.005068
 70.80100	2.654040	0.005171
 72.02100	2.655036	0.005276
 73.24200	2.656052	0.005381
 74.46300	2.657088	0.005487
 75.68300	2.658144	0.005594
 76.90400	2.659221	0.005702
 78.12500	2.660319	0.005811
 79.34500	2.661438	0.005921
 80.56600	2.662577	0.006032
 81.78700	2.663738	0.006145
 83.00800	2.664920	0.006258
 84.22800	2.666123	0.006372
 85.44900	2.667349	0.006488
 86.67000	2.668597	0.006605
 87.89000	2.669867	0.006723
 89.11100	2.671160	0.006843
 90.33200	2.672476	0.006963
 91.55200	2.673814	0.007086
 92.77300	2.675176	0.007209
 93.99400	2.676562	0.007334
 95.21500	2.677971	0.007461
 96.43500	2.679405	0.007589
 97.65600	2.680863	0.007719
 98.87700	2.682346	0.007850
 100.09700	2.683854	0.007983
 101.31800	2.685387	0.008118
 102.53900	2.686946	0.008255
 103.75900	2.688531	0.008394
 104.98000	2.690142	0.008534
 106.20100	2.691781	0.008677
 107.42200	2.693446	0.008822
 108.64200	2.695139	0.008969
 109.86300	2.696860	0.009118
 111.08400	2.698609	0.009270
 112.30400	2.700387	0.009423
 113.52500	2.702194	0.009580
 114.74600	2.704031	0.009739
 115.96600	2.705899	0.009901
 117.18700	2.707797	0.010066
 118.40800	2.709725	0.010234
 119.62900	2.711686	0.010405
 120.84900	2.713679	0.010579
 122.07000	2.715705	0.010756
 123.29100	2.717764	0.010937
 124.51100	2.719858	0.011122
 125.73200	2.721986	0.011311
 126.95300	2.724150	0.011503
 128.17300	2.726350	0.011700
 129.39400	2.728587	0.011901
 130.61500	2.730861	0.012107
 131.83600	2.733174	0.012318
 133.05600	2.735527	0.012534
 134.27700	2.737919	0.012756
 135.49800	2.740353	0.012983
 136.71800	2.742829	0.013217
 137.93900	2.745348	0.013457
 139.16000	2.747912	0.013703
 140.38000	2.750521	0.013958
 141.60100	2.753177	0.014220
 142.82200	2.755881	0.014490
 144.04300	2.758634	0.014769
 145.26300	2.761438	0.015058
 146.48400	2.764295	0.015357
 147.70500	2.767206	0.015666
 148.92500	2.770172	0.015988
 150.14600	2.773197	0.016322
 151.36700	2.776281	0.016671
 152.58700	2.779427	0.017034
 153.80800	2.782637	0.017413
 155.02900	2.785914	0.017810
 156.25000	2.789261	0.018227
 157.47000	2.792680	0.018665
 158.69100	2.796174	0.019126
 159.91200	2.799748	0.019613
 161.13200	2.803403	0.020129
 162.35300	2.807146	0.020677
 163.57400	2.810980	0.021260
 164.79400	2.814909	0.021883
 166.01500	2.818939	0.022550
 167.23600	2.823076	0.023268
 168.45700	2.827327	0.024043
 169.67700	2.831697	0.024883
 170.89800	2.836194	0.025798
 172.11900	2.840828	0.026799
 173.33900	2.845605	0.027900
 174.56000	2.850537	0.029116
 175.78100	2.855634	0.030467
 177.00100	2.860905	0.031977
 178.22200	2.866364	0.033677
 179.44300	2.872021	0.035601
 180.66400	2.877887	0.037795
 181.88400	2.883969	0.040315
 183.10500	2.890272	0.043232
 184.32600	2.896793	0.046633
 185.54600	2.903515	0.050630
 186.76700	2.910398	0.055362
 187.98800	2.917368	0.061000
 189.20800	2.924289	0.067751
 190.42900	2.930933	0.075854
 191.65000	2.936929	0.085560
 192.87100	2.941704	0.097073
 194.09100	2.944419	0.110437
 195.31200	2.943974	0.125319
 196.53300	2.939163	0.140724
 197.75300	2.929149	0.154762
 198.97400	2.914202	0.164830
 200.19500	2.896276	0.168516
 201.41500	2.878631	0.164888
 202.63600	2.864438	0.155088
 203.85700	2.855468	0.141617
 205.07800	2.851837	0.127033
 206.29800	2.852631	0.113134
 207.51900	2.856641	0.100829
 208.74000	2.862786	0.090397
 209.96000	2.870260	0.081771
 211.18100	2.878516	0.074735
 212.40200	2.887203	0.069039
 213.62200	2.896107	0.064447
 214.84300	2.905106	0.060757
 216.06400	2.914130	0.057802
 217.28500	2.923148	0.055448
 218.50500	2.932149	0.053588
 219.72600	2.941136	0.052139
 220.94700	2.950119	0.051033
 222.16700	2.959110	0.050219
 223.38800	2.968128	0.049655
 224.60900	2.977189	0.049309
 225.82900	2.986313	0.049155
 227.05000	2.995517	0.049174
 228.27100	3.004820	0.049349
 229.49200	3.014242	0.049671
 230.71200	3.023800	0.050130
 231.93300	3.033515	0.050721
 233.15400	3.043406	0.051442
 234.37400	3.053493	0.052293
 235.59500	3.063797	0.053273
 236.81600	3.074341	0.054389
 238.03600	3.085145	0.055645
 239.25700	3.096238	0.057051
 240.47800	3.107643	0.058617
 241.69900	3.119391	0.060358
 242.91900	3.131512	0.062291
 244.14000	3.144040	0.064439
 245.36100	3.157013	0.066827
 246.58100	3.170473	0.069490
 247.80200	3.184465	0.072466
 249.02300	3.199042	0.075806
 250.24300	3.214259	0.079570
 251.46400	3.230180	0.083836
 252.68500	3.246876	0.088700
 253.90600	3.264424	0.094282
 255.12600	3.282908	0.100739
 256.34700	3.302415	0.108271
 257.56800	3.323033	0.117137
 258.78800	3.344841	0.127678
 260.00900	3.367891	0.140348
 261.23000	3.392169	0.155741
 262.45000	3.417537	0.174652
 263.67100	3.443622	0.198116
 264.89200	3.469608	0.227448
 266.11300	3.493897	0.264176
 267.33300	3.513611	0.309750
 268.55400	3.524015	0.364659
 269.77500	3.518473	0.426595
 270.99500	3.490356	0.487845
 272.21600	3.438369	0.534476
 273.43700	3.372541	0.551944
 274.65700	3.312245	0.535897
 275.87800	3.274332	0.496248
 277.09900	3.264220	0.449016
 278.32000	3.277963	0.406667
 279.54000	3.308729	0.375466
 280.76100	3.350774	0.357557
 281.98200	3.400343	0.353570
 283.20200	3.455164	0.364330
 284.42300	3.513507	0.391842
 285.64400	3.572934	0.439950
 286.86400	3.628245	0.514657
 288.08500	3.667852	0.623133
 289.30600	3.668720	0.768125
 290.52700	3.596372	0.932450
 291.74700	3.429259	1.060729
 292.96800	3.205508	1.082960
 294.18900	3.012894	0.987475
 295.40900	2.907754	0.832178
 296.63000	2.884670	0.679196
 297.85100	2.912086	0.557003
 299.07100	2.963470	0.468558
 300.29200	3.023911	0.407824
 301.51300	3.086533	0.368181
 302.73400	3.148590	0.344776
 303.95400	3.209131	0.334707
 305.17500	3.267743	0.336742
 306.39600	3.323734	0.351060
 307.61600	3.375260	0.379004
 308.83700	3.418115	0.422471
 310.05800	3.444168	0.481985
 311.27800	3.441123	0.552004
 312.49900	3.398581	0.614400
 313.72000	3.323384	0.640895
 314.94100	3.246437	0.615516
 316.16100	3.199434	0.552293
 317.38200	3.190699	0.478905
 318.60300	3.210584	0.413826
 319.82300	3.246685	0.362833
 321.04400	3.290425	0.325112
 322.26500	3.337139	0.297978
 323.48500	3.384599	0.278837
 324.70600	3.431877	0.265660
 325.92700	3.478682	0.256980
 327.14800	3.525034	0.251762
 328.36800	3.571080	0.249287
 329.58900	3.617025	0.249053
 330.81000	3.663084	0.250719
 332.03000	3.709488	0.254050
 333.25100	3.756453	0.258898
 334.47200	3.804197	0.265174
 335.69200	3.852931	0.272839
 336.91300	3.902861	0.281894
 338.13400	3.954208	0.292379
 339.35500	4.007187	0.304366
 340.57500	4.062026	0.317962
 341.79600	4.118955	0.333307
 343.01700	4.178234	0.350584
 344.23700	4.240129	0.370019
 345.45800	4.304931	0.391890
 346.67900	4.372945	0.416536
 347.89900	4.444519	0.444377
 349.12000	4.520013	0.475922
 350.34100	4.599825	0.511801
 351.56200	4.684375	0.552790
 352.78200	4.774094	0.599848
 354.00300	4.869441	0.654186
 355.22400	4.970837	0.717314
 356.44400	5.078644	0.791147
 357.66500	5.193061	0.878098
 358.88600	5.314027	0.981263
 360.10600	5.440936	1.104550
 361.32700	5.572277	1.252890
 362.54800	5.704976	1.432324
 363.76900	5.833454	1.650025
 364.98900	5.948123	1.913646
 366.21000	6.033611	2.229705
 367.43100	6.067239	2.599952
 368.65100	6.019765	3.015247
 369.87200	5.861699	3.448297
 371.09300	5.577208	3.851497
 372.31300	5.179607	4.168014
 373.53400	4.713889	4.354856
 374.75500	4.239080	4.400699
 375.97600	3.805200	4.323705
 377.19600	3.441823	4.155947
 378.41700	3.160552	3.929355
 379.63800	2.962560	3.669499
 380.85800	2.845145	3.395647
 382.07900	2.805005	3.123224
 383.30000	2.838789	2.866615
 384.52000	2.941736	2.640555
 385.74100	3.105945	2.459683
 386.96200	3.320207	2.336521
 388.18300	3.571841	2.280382
 389.40300	3.848588	2.298609
 390.62400	4.138605	2.399294
 391.84500	4.427470	2.593564
 393.06500	4.692732	2.895642
 394.28600	4.896303	3.317761
 395.50700	4.979016	3.855672
 396.72700	4.870340	4.463120
 397.94800	4.530180	5.036991
 399.16900	4.000880	5.455570
 400.39000	3.358008	5.628028
 401.61000	2.761641	5.604742
 402.83100	2.263942	5.455500
 404.05200	1.872136	5.247523
 405.27200	1.567807	5.016913
 406.49300	1.331489	4.787415
 407.71400	1.146210	4.568016
 408.93400	0.998468	4.360198
 410.15500	0.879105	4.169809
 411.37600	0.782127	3.988358
 412.59700	0.701971	3.823205
 413.81700	0.634775	3.667462
 415.03800	0.578238	3.521025
 416.25900	0.531049	3.385794
 417.47900	0.491575	3.255346
 418.70000	0.457137	3.138469
 419.92100	0.427604	3.023883
 421.14100	0.401803	2.917173
 422.36200	0.379355	2.816098
 423.58300	0.359998	2.717404
 424.80400	0.342545	2.628232
 426.02400	0.327156	2.537198
 427.24500	0.313393	2.454164
 428.46600	0.300963	2.372231
 429.68600	0.289550	2.292438
 430.90700	0.279235	2.217057
 432.12800	0.271107	2.139323
 433.34800	0.262059	2.068888
 434.56900	0.256921	1.993745
 435.79000	0.254302	1.924125
 437.01100	0.252408	1.858044
 438.23100	0.250209	1.790959
 439.45200	0.248598	1.730123
 440.67300	0.246941	1.664703
 441.89300	0.245001	1.604432
 443.11400	0.243337	1.541536
 444.33500	0.242276	1.477965
 445.55500	0.241745	1.416561
 446.77600	0.241511	1.348241
 447.99700	0.243922	1.284180
 449.21800	0.247731	1.213092
 450.43800	0.255666	1.141102
 451.65900	0.268406	1.067373
 452.88000	0.286295	0.989939
 454.10000	0.310646	0.915344
 455.32100	0.340911	0.834639
 456.54200	0.381598	0.754800
 457.76200	0.436367	0.673175
 458.98300	0.510136	0.598620
 460.20400	0.600986	0.551921
 461.42500	0.694311	0.523147
 462.64500	0.790499	0.518151
 463.86600	0.875058	0.533735
 465.08700	0.941848	0.561952
 466.30700	0.990726	0.592318
 467.52800	1.024891	0.618242
 468.74900	1.050192	0.641308
 469.96900	1.062351	0.640276
 471.19000	1.099154	0.630819
 472.41100	1.140560	0.639572
 473.63200	1.164444	0.654182
 474.85200	1.169907	0.648292
 476.07300	1.198380	0.601502
 477.29400	1.281501	0.575620
 478.51400	1.365430	0.580085
 479.73500	1.448551	0.600409
 480.95600	1.530533	0.634154
 482.17600	1.609943	0.684713
 483.39700	1.683463	0.756635
 484.61800	1.724132	0.826864
 485.83900	1.787788	0.898314
 487.05900	1.839836	0.997843
 488.28000	1.872017	1.115173
 489.50100	1.883455	1.233204
 490.72100	1.869901	1.352631
 491.94200	1.855951	1.476334
 493.16300	1.802778	1.611625
 494.38300	1.730756	1.766725
 495.60400	1.627647	1.895180
 496.82500	1.500731	1.990911
 498.04600	1.374069	2.064169
 499.26600	1.234915	2.086876
 500.48700	1.114853	2.092578
 501.70800	1.006784	2.073903
 502.92800	0.915312	2.041641
 504.14900	0.843818	2.005460
 505.37000	0.783117	1.963252
 506.59000	0.736689	1.926382
 507.81100	0.696040	1.887898
 509.03200	0.660937	1.851806
 510.25300	0.630067	1.816299
 511.47300	0.602584	1.780650
 512.69400	0.578216	1.745543
 513.91500	0.549873	1.687960
 515.13500	0.525380	1.631251
 516.35600	0.504301	1.575409
 517.57700	0.486275	1.520385
 518.79700	0.471010	1.466108
 520.01800	0.458274	1.412488
 521.23900	0.447889	1.359430
 522.46000	0.439726	1.306827
 523.68000	0.433705	1.254577
 524.90100	0.429785	1.202566
 526.12200	0.427976	1.150698
 527.34200	0.428331	1.098884
 528.56300	0.430954	1.047052
 529.78400	0.436000	0.995157
 531.00400	0.443681	0.943202
 532.22500	0.454261	0.891249
 533.44600	0.468048	0.839459
 534.66700	0.485384	0.788102
 535.88700	0.501481	0.691615
 537.10800	0.529758	0.600848
 538.32900	0.570708	0.522136
 539.54900	0.620787	0.461343
 540.77000	0.673037	0.421926
 541.99100	0.719938	0.411522
 543.21100	0.734724	0.425705
 544.43200	0.743551	0.437986
 545.65300	0.740045	0.443476
 546.87400	0.728076	0.437724
 548.09400	0.715438	0.416885
 549.31500	0.708166	0.378903
 550.53600	0.718820	0.333918
 551.75600	0.745685	0.286898
 552.97700	0.784519	0.251125
 554.19800	0.828421	0.224570
 555.41800	0.875356	0.204485
 556.63900	0.929773	0.200533
 557.86000	0.963336	0.213649
 559.08100	0.985222	0.216944
 560.30100	1.005805	0.212779
 561.52200	1.030327	0.204065
 562.74300	1.060351	0.195087
 563.96300	1.094953	0.191800
 565.18400	1.123551	0.196525
 566.40500	1.145794	0.194506
 567.62500	1.173911	0.188543
 568.84600	1.205122	0.185203
 570.06700	1.233823	0.184656
 571.28800	1.262668	0.172369
 572.50800	1.315453	0.167258
 573.72900	1.359311	0.185093
 574.95000	1.386750	0.193418
 576.17000	1.421866	0.187250
 577.39100	1.481586	0.183070
 578.61200	1.541448	0.211932
 579.83200	1.585070	0.233250
 581.05300	1.632133	0.255713
 582.27400	1.687437	0.278334
 583.49500	1.747203	0.306882
 584.71500	1.811543	0.345613
 585.93600	1.893901	0.389909
 587.15700	1.955712	0.478328
 588.37700	2.019438	0.577976
 589.59800	2.072172	0.644190
 590.81900	2.125708	0.773239
 592.03900	2.178154	0.877853
 593.26000	2.190761	1.003197
 594.48100	2.165042	1.151444
 595.70200	2.053447	1.322504
 596.92200	1.924499	1.511763
 598.14300	1.764526	1.707944
 599.36400	1.559733	1.892926
 600.58400	1.387049	2.046046
 601.80500	1.198292	2.151692
 603.02600	1.059092	2.204995
 604.24600	0.938205	2.211453
 605.46700	0.838880	2.182103
 606.68800	0.767299	2.128600
 607.90900	0.676691	2.060560
 609.12900	0.621137	1.984870
 610.35000	0.590774	1.906077
 611.57100	0.563722	1.826983
 612.79100	0.537565	1.749216
 614.01200	0.510300	1.673646
 615.23300	0.491436	1.600681
 616.45300	0.471637	1.530439
 617.67400	0.455607	1.462879
 618.89500	0.440882	1.397844
 620.11600	0.428787	1.335154
 621.33600	0.408895	1.274590
 622.55700	0.392086	1.215931
 623.77800	0.377991	1.158954
 624.99800	0.366324	1.103445
 626.21900	0.356868	1.049196
 627.44000	0.349472	0.996010
 628.66000	0.344039	0.943713
 629.88100	0.340525	0.892120
 631.10200	0.338941	0.841082
 632.32300	0.339352	0.790467
 633.54300	0.341883	0.740172
 634.76400	0.346723	0.690146
 635.98500	0.354121	0.640405
 637.20500	0.364384	0.591075
 638.42600	0.377839	0.542435
 639.64700	0.394779	0.494948
 640.86700	0.415347	0.449286
 642.08800	0.439417	0.406251
 643.30900	0.466513	0.366625
 644.53000	0.495851	0.330972
 645.75000	0.526505	0.299504
 646.97100	0.557600	0.272095
 648.19200	0.588447	0.248382
 649.41200	0.618569	0.227899
 650.63300	0.647686	0.210166
 651.85400	0.675648	0.194747
 653.07400	0.702403	0.181266
 654.29500	0.727957	0.169408
 655.51600	0.752346	0.158916
 656.73700	0.775626	0.149577
 657.95700	0.797862	0.141219
 659.17800	0.819119	0.133700
 660.39900	0.839460	0.126905
 661.61900	0.858951	0.120736
 662.84000	0.877650	0.115112
 664.06100	0.895610	0.109967
 665.28100	0.912882	0.105244
 666.50200	0.929513	0.100893
 667.72300	0.945545	0.096874
 668.94400	0.961017	0.093151
 670.16400	0.975964	0.089694
 671.38500	0.990420	0.086476
 672.60600	1.004416	0.083473
 673.82600	1.017979	0.080667
 675.04700	1.031134	0.078038
 676.26800	1.043905	0.075571
 677.48800	1.056315	0.073252
 678.70900	1.068382	0.071069
 679.93000	1.080126	0.069011
 681.15100	1.091563	0.067067
 682.37100	1.102712	0.065229
 683.59200	1.113585	0.063490
 684.81300	1.124197	0.061841
 686.03300	1.134560	0.060276
 687.25400	1.144688	0.058789
 688.47500	1.154592	0.057375
 689.69500	1.164281	0.056030
 690.91600	1.173766	0.054747
 692.13700	1.183056	0.053525
 693.35800	1.192160	0.052358
 694.57800	1.201087	0.051243
 695.79900	1.209844	0.050178
 697.02000	1.218439	0.049158
 698.24000	1.226878	0.048183
 699.46100	1.235168	0.047248
 700.68200	1.243315	0.046352
 701.90200	1.251325	0.045493
 703.12300	1.259204	0.044669
 704.34400	1.266958	0.043877
 705.56500	1.274590	0.043117
 706.78500	1.282106	0.042386
 708.00600	1.289511	0.041684
 709.22700	1.296809	0.041008
 710.44700	1.304003	0.040358
 711.66800	1.311100	0.039732
 712.88900	1.318099	0.039130
 714.10900	1.325008	0.038549
 715.33000	1.331828	0.037990
 716.55100	1.338564	0.037450
 717.77200	1.345219	0.036931
 718.99200	1.351794	0.036429
 720.21300	1.358294	0.035946
 721.43400	1.364722	0.035479
 722.65400	1.371078	0.035029
 723.87500	1.377368	0.034595
 725.09600	1.383593	0.034176
 726.31600	1.389756	0.033771
 727.53700	1.395859	0.033381
 728.75800	1.401903	0.033004
 729.97900	1.407892	0.032640
 731.19900	1.413828	0.032288
 732.42000	1.419712	0.031949
 733.64100	1.425547	0.031622
 734.86100	1.431334	0.031306
 736.08200	1.437076	0.031001
 737.30300	1.442775	0.030706
 738.52300	1.448431	0.030422
 739.74400	1.454047	0.030149
 740.96500	1.459625	0.029885
 742.18600	1.465165	0.029630
 743.40600	1.470672	0.029384
 744.62700	1.476143	0.029148
 745.84800	1.481583	0.028921
 747.06800	1.486992	0.028701
 748.28900	1.492372	0.028491
 749.51000	1.497725	0.028288
 750.73000	1.503051	0.028094
 751.95100	1.508353	0.027907
 753.17200	1.513631	0.027728
 754.39300	1.518886	0.027556
 755.61300	1.524122	0.027392
 756.83400	1.529338	0.027234
 758.05500	1.534535	0.027084
 759.27500	1.539716	0.026941
 760.49600	1.544882	0.026805
 761.71700	1.550033	0.026675
 762.93700	1.555171	0.026552
 764.15800	1.560298	0.026436
 765.37900	1.565414	0.026326
 766.60000	1.570521	0.026223
 767.82000	1.575619	0.026126
 769.04100	1.580712	0.026036
 770.26200	1.585798	0.025951
 771.48200	1.590881	0.025873
 772.70300	1.595960	0.025801
 773.92400	1.601038	0.025736
 775.14400	1.606116	0.025676
 776.36500	1.611193	0.025623
 777.58600	1.616274	0.025576
 778.80700	1.621357	0.025535
 780.02700	1.626446	0.025501
 781.24800	1.631540	0.025473
 782.46900	1.636643	0.025451
 783.68900	1.641753	0.025436
 784.91000	1.646875	0.025427
 786.13100	1.652008	0.025424
 787.35100	1.657154	0.025429
 788.57200	1.662316	0.025440
 789.79300	1.667493	0.025458
 791.01400	1.672690	0.025484
 792.23400	1.677906	0.025516
 793.45500	1.683143	0.025557
 794.67600	1.688405	0.025605
 795.89600	1.693692	0.025661
 797.11700	1.699006	0.025725
